Rioux calculated dielectric data (0Au/100Ag), Alexander Al-Feghali al-fegha.li
1 2 3 0 0 = columns for wave, Re(n), Im(n), eps1, eps2
wave(um) Re(n)  Im(n)    eps1   eps2
0.189700	1.079531	0.827863	0.480030	1.787407
0.193202	1.088186	0.850456	0.460874	1.850908
0.196703	1.097816	0.872281	0.444324	1.915208
0.200205	1.108414	0.893287	0.430620	1.980262
0.203706	1.119981	0.913418	0.420024	2.046021
0.207208	1.132523	0.932621	0.412826	2.112429
0.210710	1.146054	0.950837	0.409348	2.179420
0.214211	1.160594	0.968005	0.409945	2.246922
0.217713	1.176174	0.984058	0.415015	2.314848
0.221214	1.192834	0.998924	0.425006	2.383101
0.224716	1.210626	1.012519	0.440420	2.451564
0.228218	1.229614	1.024753	0.461831	2.520102
0.231719	1.249878	1.035522	0.489891	2.588552
0.235221	1.271518	1.044705	0.525350	2.656722
0.238722	1.294653	1.052164	0.569078	2.724375
0.242224	1.319431	1.057739	0.622087	2.791227
0.245726	1.346031	1.061240	0.685568	2.856923
0.249227	1.374671	1.062443	0.760934	2.921020
0.252729	1.405620	1.061082	0.849874	2.982957
0.256230	1.439211	1.056833	0.954434	3.042011
0.259732	1.475855	1.049303	1.077110	3.097239
0.263234	1.516066	1.038011	1.220989	3.147387
0.266735	1.560495	1.022355	1.389935	3.190760
0.270237	1.609968	1.001579	1.588838	3.225021
0.273738	1.665549	0.974721	1.823972	3.246890
0.277240	1.728617	0.940548	2.103488	3.251694
0.280742	1.800996	0.897479	2.438117	3.232712
0.284243	1.885156	0.843522	2.842285	3.180340
0.287745	1.984672	0.776277	3.336318	3.081310
0.291246	2.105452	0.693076	3.952574	2.918478
0.294748	2.259363	0.590775	4.755706	2.669550
0.298250	2.474228	0.462020	5.908342	2.286287
0.301751	2.822341	0.272752	7.891216	1.539596
0.305253	3.483952	0.260772	12.069918	-1.817035
0.308755	3.551573	1.583055	10.107608	-11.244668
0.312256	2.996413	2.741013	1.465336	-16.426414
0.315758	1.441342	3.718005	-11.746093	-10.717836
0.319259	0.285224	2.807250	-7.799301	-1.601393
0.322761	0.091585	2.294395	-5.255860	-0.420266
0.326263	0.023125	2.029906	-4.119983	-0.093881
0.329764	0.009034	1.877803	-3.526064	0.033928
0.333266	0.025858	1.787183	-3.193355	0.092425
0.336767	0.034958	1.734009	-3.005566	0.121234
0.340269	0.039791	1.705182	-2.906063	0.135701
0.343771	0.042146	1.692882	-2.864075	0.142697
0.347272	0.043027	1.692147	-2.861511	0.145616
0.350774	0.043024	1.699688	-2.887087	0.146253
0.354275	0.042495	1.713252	-2.933426	0.145610
0.357777	0.041665	1.731259	-2.995523	0.144265
0.361279	0.040672	1.752578	-3.069875	0.142562
0.364780	0.039606	1.776383	-3.153969	0.140711
0.368282	0.038521	1.802066	-3.245957	0.138836
0.371783	0.037453	1.829170	-3.344460	0.137017
0.375285	0.036422	1.857351	-3.448427	0.135298
0.378787	0.035441	1.886347	-3.557048	0.133707
0.382288	0.034515	1.915955	-3.669692	0.132259
0.385790	0.033648	1.946019	-3.785856	0.130959
0.389291	0.032840	1.976416	-3.905143	0.129809
0.392793	0.032089	2.007053	-4.027230	0.128808
0.396295	0.031394	2.037852	-4.151857	0.127951
0.399796	0.030751	2.068757	-4.278808	0.127234
0.403298	0.030159	2.099718	-4.407908	0.126652
0.406799	0.029614	2.130701	-4.539010	0.126198
0.410301	0.029113	2.161675	-4.671992	0.125868
0.413803	0.028654	2.192618	-4.806753	0.125655
0.417304	0.028233	2.223511	-4.943205	0.125554
0.420806	0.027849	2.254340	-5.081275	0.125561
0.424307	0.027498	2.285095	-5.220902	0.125670
0.427809	0.027178	2.315766	-5.362033	0.125876
0.431311	0.026888	2.346347	-5.504621	0.126177
0.434812	0.026625	2.376834	-5.648629	0.126567
0.438314	0.026388	2.407222	-5.794022	0.127043
0.441815	0.026175	2.437510	-5.940772	0.127602
0.445317	0.025984	2.467697	-6.088853	0.128241
0.448819	0.025814	2.497781	-6.238243	0.128956
0.452320	0.025664	2.527762	-6.388923	0.129746
0.455822	0.025533	2.557641	-6.540878	0.130607
0.459323	0.025419	2.587419	-6.694091	0.131538
0.462825	0.025321	2.617096	-6.848551	0.132536
0.466327	0.025239	2.646674	-7.004246	0.133599
0.469828	0.025172	2.676154	-7.161167	0.134727
0.473330	0.025118	2.705538	-7.319304	0.135916
0.476831	0.025078	2.734827	-7.478651	0.137165
0.480333	0.025049	2.764024	-7.639201	0.138474
0.483835	0.025033	2.793130	-7.800947	0.139840
0.487336	0.025028	2.822146	-7.963884	0.141264
0.490838	0.025033	2.851076	-8.128009	0.142742
0.494339	0.025048	2.879921	-8.293316	0.144275
0.497841	0.025074	2.908682	-8.459802	0.145862
0.501343	0.025108	2.937362	-8.627464	0.147501
0.504844	0.025151	2.965962	-8.796300	0.149192
0.508346	0.025202	2.994485	-8.966306	0.150935
0.511847	0.025261	3.022932	-9.137481	0.152727
0.515349	0.025328	3.051305	-9.309822	0.154570
0.518851	0.025403	3.079606	-9.483328	0.156462
0.522352	0.025484	3.107836	-9.657998	0.158403
0.525854	0.025573	3.135998	-9.833829	0.160391
0.529356	0.025667	3.164092	-10.010822	0.162428
0.532857	0.025769	3.192121	-10.188974	0.164512
0.536359	0.025876	3.220086	-10.368285	0.166644
0.539860	0.025989	3.247989	-10.548754	0.168822
0.543362	0.026107	3.275830	-10.730381	0.171046
0.546864	0.026231	3.303612	-10.913165	0.173316
0.550365	0.026361	3.331336	-11.097105	0.175633
0.553867	0.026495	3.359003	-11.282201	0.177995
0.557368	0.026635	3.386615	-11.468452	0.180402
0.560870	0.026779	3.414173	-11.655859	0.182855
0.564372	0.026928	3.441678	-11.844421	0.185353
0.567873	0.027081	3.469131	-12.034137	0.187895
0.571375	0.027239	3.496534	-12.225009	0.190483
0.574876	0.027401	3.523888	-12.417034	0.193115
0.578378	0.027567	3.551193	-12.610215	0.195792
0.581880	0.027737	3.578452	-12.804549	0.198513
0.585381	0.027912	3.605665	-13.000038	0.201279
0.588883	0.028090	3.632832	-13.196681	0.204090
0.592384	0.028271	3.659956	-13.394478	0.206944
0.595886	0.028457	3.687037	-13.593430	0.209843
0.599388	0.028646	3.714075	-13.793536	0.212787
0.602889	0.028839	3.741073	-13.994796	0.215775
0.606391	0.029035	3.768031	-14.197211	0.218807
0.609892	0.029234	3.794949	-14.400780	0.221883
0.613394	0.029437	3.821828	-14.605504	0.225004
0.616896	0.029643	3.848670	-14.811383	0.228170
0.620397	0.029852	3.875475	-15.018416	0.231380
0.623899	0.030064	3.902244	-15.226605	0.234634
0.627400	0.030279	3.928978	-15.435948	0.237933
0.630902	0.030498	3.955677	-15.646447	0.241277
0.634404	0.030719	3.982342	-15.858101	0.244665
0.637905	0.030943	4.008973	-16.070910	0.248098
0.641407	0.031170	4.035573	-16.284875	0.251576
0.644908	0.031400	4.062140	-16.499995	0.255099
0.648410	0.031632	4.088676	-16.716272	0.258667
0.651912	0.031867	4.115182	-16.933704	0.262280
0.655413	0.032105	4.141657	-17.152293	0.265939
0.658915	0.032346	4.168103	-17.372037	0.269642
0.662416	0.032589	4.194520	-17.592938	0.273392
0.665918	0.032835	4.220909	-17.814996	0.277186
0.669420	0.033083	4.247270	-18.038210	0.281027
0.672921	0.033334	4.273604	-18.262581	0.284913
0.676423	0.033587	4.299911	-18.488109	0.288846
0.679924	0.033843	4.326192	-18.714794	0.292824
0.683426	0.034101	4.352447	-18.942636	0.296849
0.686928	0.034362	4.378677	-19.171635	0.300920
0.690429	0.034625	4.404883	-19.401792	0.305037
0.693931	0.034890	4.431063	-19.633106	0.309201
0.697432	0.035158	4.457220	-19.865578	0.313412
0.700934	0.035428	4.483354	-20.099208	0.317670
0.704436	0.035700	4.509465	-20.333996	0.321975
0.707937	0.035974	4.535552	-20.569942	0.326327
0.711439	0.036251	4.561618	-20.807047	0.330727
0.714940	0.036530	4.587662	-21.045309	0.335174
0.718442	0.036811	4.613685	-21.284730	0.339669
0.721944	0.037094	4.639686	-21.525310	0.344212
0.725445	0.037380	4.665667	-21.767048	0.348802
0.728947	0.037667	4.691627	-22.009945	0.353441
0.732448	0.037957	4.717567	-22.254001	0.358129
0.735950	0.038249	4.743488	-22.499216	0.362864
0.739452	0.038543	4.769389	-22.745590	0.367649
0.742953	0.038838	4.795272	-22.993123	0.372482
0.746455	0.039137	4.821135	-23.241816	0.377365
0.749957	0.039437	4.846981	-23.491668	0.382296
0.753458	0.039739	4.872808	-23.742679	0.387278
0.756960	0.040043	4.898618	-23.994851	0.392308
0.760461	0.040349	4.924410	-24.248182	0.397389
0.763963	0.040657	4.950184	-24.502672	0.402519
0.767465	0.040967	4.975942	-24.758323	0.407700
0.770966	0.041279	5.001683	-25.015134	0.412930
0.774468	0.041593	5.027408	-25.273104	0.418212
0.777969	0.041909	5.053117	-25.532235	0.423544
0.781471	0.042227	5.078810	-25.792526	0.428927
0.784973	0.042547	5.104487	-26.053978	0.434361
0.788474	0.042869	5.130149	-26.316590	0.439846
0.791976	0.043192	5.155796	-26.580362	0.445382
0.795477	0.043518	5.181427	-26.845295	0.450970
0.798979	0.043845	5.207044	-27.111389	0.456610
0.802481	0.044175	5.232647	-27.378643	0.462302
0.805982	0.044506	5.258235	-27.647058	0.468047
0.809484	0.044839	5.283810	-27.916634	0.473843
0.812985	0.045174	5.309370	-28.187371	0.479692
0.816487	0.045511	5.334917	-28.459269	0.485594
0.819989	0.045850	5.360451	-28.732328	0.491549
0.823490	0.046190	5.385971	-29.006548	0.497557
0.826992	0.046532	5.411478	-29.281930	0.503618
0.830493	0.046877	5.436972	-29.558472	0.509733
0.833995	0.047223	5.462454	-29.836176	0.515902
0.837497	0.047570	5.487924	-30.115042	0.522125
0.840998	0.047920	5.513381	-30.395068	0.528402
0.844500	0.048271	5.538825	-30.676256	0.534733
0.848001	0.048625	5.564258	-30.958606	0.541119
0.851503	0.048979	5.589679	-31.242118	0.547559
0.855005	0.049336	5.615089	-31.526791	0.554055
0.858506	0.049695	5.640487	-31.812625	0.560605
0.862008	0.050055	5.665874	-32.099622	0.567211
0.865509	0.050417	5.691250	-32.387780	0.573873
0.869011	0.050781	5.716614	-32.677100	0.580590
0.872513	0.051147	5.741968	-32.967582	0.587363
0.876014	0.051514	5.767311	-33.259226	0.594193
0.879516	0.051883	5.792644	-33.552032	0.601079
0.883017	0.052254	5.817966	-33.846000	0.608021
0.886519	0.052626	5.843278	-34.141130	0.615020
0.890021	0.053001	5.868580	-34.437422	0.622076
0.893522	0.053377	5.893872	-34.734877	0.629190
0.897024	0.053754	5.919154	-35.033493	0.636361
0.900525	0.054134	5.944426	-35.333272	0.643589
0.904027	0.054515	5.969689	-35.634213	0.650875
0.907529	0.054898	5.994942	-35.936316	0.658220
0.911030	0.055283	6.020186	-36.239581	0.665622
0.914532	0.055669	6.045420	-36.544009	0.673083
0.918033	0.056057	6.070646	-36.849600	0.680603
0.921535	0.056447	6.095862	-37.156352	0.688181
0.925037	0.056838	6.121070	-37.464267	0.695819
0.928538	0.057231	6.146269	-37.773345	0.703516
0.932040	0.057626	6.171459	-38.083585	0.711272
0.935541	0.058022	6.196641	-38.394988	0.719088
0.939043	0.058421	6.221814	-38.707553	0.726964
0.942545	0.058820	6.246979	-39.021281	0.734900
0.946046	0.059222	6.272135	-39.336172	0.742896
0.949548	0.059625	6.297284	-39.652225	0.750953
0.953049	0.060030	6.322424	-39.969441	0.759071
0.956551	0.060437	6.347556	-40.287819	0.767249
0.960053	0.060845	6.372681	-40.607361	0.775489
0.963554	0.061255	6.397798	-40.928065	0.783790
0.967056	0.061666	6.422907	-41.249931	0.792153
0.970558	0.062079	6.448009	-41.572961	0.800578
0.974059	0.062494	6.473103	-41.897153	0.809064
0.977561	0.062911	6.498189	-42.222508	0.817613
0.981062	0.063329	6.523269	-42.549026	0.826225
0.984564	0.063749	6.548341	-42.876707	0.834898
0.988066	0.064170	6.573406	-43.205551	0.843635
0.991567	0.064593	6.598464	-43.535558	0.852435
0.995069	0.065018	6.623515	-43.866727	0.861298
0.998570	0.065445	6.648559	-44.199060	0.870225
1.002072	0.065873	6.673597	-44.532555	0.879215
1.005574	0.066302	6.698627	-44.867213	0.888270
1.009075	0.066734	6.723651	-45.203035	0.897388
1.012577	0.067167	6.748669	-45.540019	0.906571
1.016078	0.067601	6.773680	-45.878166	0.915819
1.019580	0.068037	6.798684	-46.217477	0.925131
1.023082	0.068475	6.823682	-46.557950	0.934508
1.026583	0.068915	6.848674	-46.899586	0.943951
1.030085	0.069356	6.873660	-47.242386	0.953458
1.033586	0.069799	6.898639	-47.586348	0.963032
1.037088	0.070243	6.923612	-47.931474	0.972671
1.040590	0.070689	6.948580	-48.277762	0.982377
1.044091	0.071137	6.973541	-48.625214	0.992149
1.047593	0.071586	6.998497	-48.973829	1.001987
1.051094	0.072037	7.023446	-49.323607	1.011892
1.054596	0.072489	7.048390	-49.674548	1.021864
1.058098	0.072943	7.073328	-50.026652	1.031903
1.061599	0.073399	7.098261	-50.379919	1.042009
1.065101	0.073856	7.123188	-50.734349	1.052183
1.068602	0.074315	7.148109	-51.089943	1.062425
1.072104	0.074776	7.173025	-51.446699	1.072735
1.075606	0.075238	7.197936	-51.804619	1.083113
1.079107	0.075701	7.222841	-52.163702	1.093560
1.082609	0.076167	7.247741	-52.523948	1.104075
1.086110	0.076634	7.272636	-52.885357	1.114659
1.089612	0.077102	7.297525	-53.247929	1.125312
1.093114	0.077572	7.322410	-53.611664	1.136035
1.096615	0.078044	7.347289	-53.976563	1.146827
1.100117	0.078518	7.372163	-54.342625	1.157688
1.103618	0.078992	7.397032	-54.709849	1.168620
1.107120	0.079469	7.421897	-55.078237	1.179622
1.110622	0.079947	7.446756	-55.447789	1.190694
1.114123	0.080427	7.471611	-55.818503	1.201837
1.117625	0.080908	7.496461	-56.190381	1.213051
1.121126	0.081391	7.521306	-56.563421	1.224335
1.124628	0.081876	7.546147	-56.937625	1.235691
1.128130	0.082362	7.570982	-57.312992	1.247119
1.131631	0.082849	7.595814	-57.689522	1.258618
1.135133	0.083339	7.620640	-58.067216	1.270189
1.138634	0.083830	7.645463	-58.446072	1.281832
1.142136	0.084322	7.670280	-58.826092	1.293548
1.145638	0.084816	7.695094	-59.207275	1.305336
1.149139	0.085312	7.719903	-59.589620	1.317197
1.152641	0.085809	7.744707	-59.973130	1.329131
1.156142	0.086308	7.769508	-60.357802	1.341138
1.159644	0.086808	7.794304	-60.743637	1.353219
1.163146	0.087310	7.819096	-61.130636	1.365373
1.166647	0.087814	7.843884	-61.518797	1.377601
1.170149	0.088319	7.868667	-61.908122	1.389903
1.173651	0.088826	7.893447	-62.298610	1.402279
1.177152	0.089334	7.918222	-62.690261	1.414730
1.180654	0.089844	7.942994	-63.083075	1.427256
1.184155	0.090355	7.967761	-63.477052	1.439857
1.187657	0.090868	7.992525	-63.872193	1.452532
1.191159	0.091383	8.017284	-64.268496	1.465284
1.194660	0.091899	8.042040	-64.665963	1.478111
1.198162	0.092417	8.066792	-65.064592	1.491013
1.201663	0.092936	8.091540	-65.464385	1.503992
1.205165	0.093457	8.116285	-65.865341	1.517047
1.208667	0.093979	8.141025	-66.267459	1.530178
1.212168	0.094504	8.165762	-66.670741	1.543386
1.215670	0.095029	8.190496	-67.075186	1.556671
1.219171	0.095556	8.215225	-67.480794	1.570034
1.222673	0.096085	8.239951	-67.887565	1.583473
1.226175	0.096615	8.264674	-68.295499	1.596990
1.229676	0.097147	8.289393	-68.704596	1.610585
1.233178	0.097681	8.314108	-69.114856	1.624258
1.236679	0.098216	8.338820	-69.526279	1.638009
1.240181	0.098752	8.363529	-69.938865	1.651839
1.243683	0.099291	8.388234	-70.352614	1.665747
1.247184	0.099830	8.412936	-70.767526	1.679734
1.250686	0.100372	8.437634	-71.183601	1.693800
1.254187	0.100915	8.462330	-71.600839	1.707946
1.257689	0.101459	8.487022	-72.019240	1.722171
1.261191	0.102005	8.511710	-72.438804	1.736475
1.264692	0.102553	8.536395	-72.859531	1.750860
1.268194	0.103102	8.561078	-73.281420	1.765325
1.271695	0.103653	8.585757	-73.704473	1.779870
1.275197	0.104205	8.610432	-74.128688	1.794496
1.278699	0.104759	8.635105	-74.554066	1.809203
1.282200	0.105314	8.659775	-74.980608	1.823991
1.285702	0.105871	8.684441	-75.408312	1.838860
1.289203	0.106429	8.709105	-75.837178	1.853811
1.292705	0.106990	8.733765	-76.267208	1.868843
1.296207	0.107551	8.758423	-76.698401	1.883958
1.299708	0.108114	8.783077	-77.130756	1.899154
1.303210	0.108679	8.807729	-77.564274	1.914433
1.306711	0.109245	8.832377	-77.998955	1.929794
1.310213	0.109813	8.857023	-78.434799	1.945239
1.313715	0.110383	8.881666	-78.871805	1.960766
1.317216	0.110954	8.906306	-79.309974	1.976377
1.320718	0.111526	8.930943	-79.749306	1.992071
1.324219	0.112100	8.955577	-80.189801	2.007848
1.327721	0.112676	8.980209	-80.631458	2.023710
1.331223	0.113253	9.004838	-81.074278	2.039656
1.334724	0.113832	9.029464	-81.518261	2.055686
1.338226	0.114412	9.054087	-81.963406	2.071800
1.341727	0.114994	9.078708	-82.409714	2.088000
1.345229	0.115578	9.103326	-82.857185	2.104284
1.348731	0.116163	9.127941	-83.305818	2.120654
1.352232	0.116749	9.152554	-83.755614	2.137109
1.355734	0.117337	9.177164	-84.206572	2.153650
1.359235	0.117927	9.201772	-84.658693	2.170276
1.362737	0.118518	9.226376	-85.111977	2.186989
1.366239	0.119111	9.250979	-85.566423	2.203788
1.369740	0.119705	9.275579	-86.022031	2.220674
1.373242	0.120301	9.300176	-86.478803	2.237646
1.376743	0.120899	9.324771	-86.936736	2.254705
1.380245	0.121498	9.349363	-87.395832	2.271852
1.383747	0.122098	9.373953	-87.856091	2.289086
1.387248	0.122700	9.398541	-88.317512	2.306407
1.390750	0.123304	9.423126	-88.780095	2.323817
1.394252	0.123909	9.447708	-89.243841	2.341314
1.397753	0.124516	9.472289	-89.708750	2.358900
1.401255	0.125124	9.496867	-90.174820	2.376574
1.404756	0.125734	9.521442	-90.642053	2.394337
1.408258	0.126345	9.546016	-91.110449	2.412189
1.411760	0.126958	9.570586	-91.580007	2.430130
1.415261	0.127573	9.595155	-92.050727	2.448160
1.418763	0.128189	9.619721	-92.522609	2.466281
1.422264	0.128806	9.644286	-92.995654	2.484490
1.425766	0.129425	9.668847	-93.469861	2.502790
1.429268	0.130046	9.693407	-93.945230	2.521181
1.432769	0.130668	9.717965	-94.421761	2.539661
1.436271	0.131292	9.742520	-94.899455	2.558233
1.439772	0.131917	9.767073	-95.378310	2.576895
1.443274	0.132544	9.791624	-95.858328	2.595648
1.446776	0.133173	9.816173	-96.339509	2.614493
1.450277	0.133803	9.840719	-96.821851	2.633429
1.453779	0.134434	9.865264	-97.305355	2.652457
1.457280	0.135067	9.889806	-97.790022	2.671578
1.460782	0.135702	9.914346	-98.275850	2.690790
1.464284	0.136338	9.938885	-98.762841	2.710095
1.467785	0.136976	9.963421	-99.250994	2.729492
1.471287	0.137615	9.987955	-99.740308	2.748983
1.474788	0.138256	10.012487	-100.230785	2.768566
1.478290	0.138898	10.037017	-100.722424	2.788243
1.481792	0.139542	10.061545	-101.215225	2.808013
1.485293	0.140187	10.086072	-101.709187	2.827877
1.488795	0.140834	10.110596	-102.204312	2.847835
1.492296	0.141483	10.135118	-102.700598	2.867888
1.495798	0.142133	10.159638	-103.198047	2.888035
1.499300	0.142784	10.184157	-103.696657	2.908276
1.502801	0.143437	10.208673	-104.196429	2.928612
1.506303	0.144092	10.233187	-104.697363	2.949043
1.509804	0.144748	10.257700	-105.199459	2.969570
1.513306	0.145406	10.282211	-105.702717	2.990192
1.516808	0.146065	10.306720	-106.207136	3.010910
1.520309	0.146726	10.331227	-106.712717	3.031724
1.523811	0.147389	10.355732	-107.219460	3.052634
1.527312	0.148053	10.380235	-107.727364	3.073640
1.530814	0.148718	10.404737	-108.236431	3.094744
1.534316	0.149385	10.429237	-108.746659	3.115943
1.537817	0.150054	10.453734	-109.258048	3.137240
1.541319	0.150724	10.478231	-109.770599	3.158635
1.544820	0.151395	10.502725	-110.284312	3.180126
1.548322	0.152068	10.527218	-110.799187	3.201716
1.551824	0.152743	10.551709	-111.315222	3.223403
1.555325	0.153419	10.576198	-111.832420	3.245189
1.558827	0.154097	10.600685	-112.350779	3.267072
1.562328	0.154777	10.625171	-112.870299	3.289055
1.565830	0.155457	10.649655	-113.390981	3.311136
1.569332	0.156140	10.674137	-113.912825	3.333316
1.572833	0.156824	10.698618	-114.435830	3.355596
1.576335	0.157509	10.723097	-114.959996	3.377975
1.579836	0.158196	10.747574	-115.485324	3.400454
1.583338	0.158885	10.772050	-116.011813	3.423032
1.586840	0.159575	10.796524	-116.539463	3.445711
1.590341	0.160267	10.820996	-117.068275	3.468490
1.593843	0.160960	10.845467	-117.598248	3.491370
1.597344	0.161655	10.869936	-118.129382	3.514350
1.600846	0.162351	10.894404	-118.661678	3.537432
1.604348	0.163049	10.918870	-119.195135	3.560614
1.607849	0.163748	10.943334	-119.729753	3.583898
1.611351	0.164449	10.967797	-120.265532	3.607284
1.614853	0.165151	10.992259	-120.802473	3.630772
1.618354	0.165855	11.016718	-121.340574	3.654362
1.621856	0.166561	11.041177	-121.879837	3.678054
1.625357	0.167268	11.065633	-122.420261	3.701848
1.628859	0.167976	11.090088	-122.961845	3.725746
1.632361	0.168686	11.114542	-123.504591	3.749746
1.635862	0.169398	11.138994	-124.048498	3.773849
1.639364	0.170111	11.163445	-124.593566	3.798056
1.642865	0.170826	11.187894	-125.139795	3.822367
1.646367	0.171542	11.212342	-125.687185	3.846781
1.649869	0.172260	11.236788	-126.235736	3.871300
1.653370	0.172979	11.261233	-126.785447	3.895923
1.656872	0.173700	11.285676	-127.336320	3.920650
1.660373	0.174423	11.310118	-127.888353	3.945482
1.663875	0.175147	11.334559	-128.441548	3.970419
1.667377	0.175872	11.358998	-128.995903	3.995461
1.670878	0.176599	11.383436	-129.551419	4.020609
1.674380	0.177328	11.407872	-130.108095	4.045862
1.677881	0.178058	11.432307	-130.665933	4.071221
1.681383	0.178789	11.456740	-131.224931	4.096686
1.684885	0.179522	11.481172	-131.785090	4.122257
1.688386	0.180257	11.505603	-132.346409	4.147935
1.691888	0.180993	11.530032	-132.908889	4.173719
1.695389	0.181731	11.554460	-133.472530	4.199611
1.698891	0.182470	11.578887	-134.037331	4.225609
1.702393	0.183211	11.603312	-134.603293	4.251715
1.705894	0.183954	11.627736	-135.170416	4.277929
1.709396	0.184698	11.652159	-135.738699	4.304250
1.712897	0.185443	11.676580	-136.308142	4.330679
1.716399	0.186190	11.701001	-136.878746	4.357217
1.719901	0.186938	11.725419	-137.450510	4.383863
1.723402	0.187688	11.749837	-138.023435	4.410618
1.726904	0.188440	11.774253	-138.597520	4.437481
1.730405	0.189193	11.798668	-139.172766	4.464454
1.733907	0.189948	11.823081	-139.749172	4.491536
1.737409	0.190704	11.847494	-140.326738	4.518727
1.740910	0.191462	11.871905	-140.905464	4.546029
1.744412	0.192221	11.896315	-141.485351	4.573440
1.747913	0.192982	11.920723	-142.066398	4.600962
1.751415	0.193744	11.945130	-142.648605	4.628594
1.754917	0.194508	11.969537	-143.231973	4.656336
1.758418	0.195273	11.993941	-143.816500	4.684190
1.761920	0.196040	12.018345	-144.402188	4.712154
1.765421	0.196809	12.042748	-144.989036	4.740230
1.768923	0.197578	12.067149	-145.577044	4.768418
1.772425	0.198350	12.091549	-146.166212	4.796717
1.775926	0.199123	12.115948	-146.756540	4.825128
1.779428	0.199898	12.140345	-147.348027	4.853651
1.782929	0.200674	12.164742	-147.940675	4.882287
1.786431	0.201451	12.189137	-148.534483	4.911035
1.789933	0.202230	12.213531	-149.129451	4.939897
1.793434	0.203011	12.237924	-149.725579	4.968871
1.796936	0.203793	12.262316	-150.322866	4.997958
1.800437	0.204577	12.286707	-150.921314	5.027159
1.803939	0.205362	12.311096	-151.520921	5.056474
1.807441	0.206149	12.335485	-152.121688	5.085903
1.810942	0.206938	12.359872	-152.723615	5.115446
1.814444	0.207728	12.384258	-153.326701	5.145103
1.817945	0.208519	12.408643	-153.930947	5.174875
1.821447	0.209312	12.433027	-154.536353	5.204761
1.824949	0.210106	12.457410	-155.142919	5.234763
1.828450	0.210902	12.481792	-155.750644	5.264880
1.831952	0.211700	12.506172	-156.359528	5.295112
1.835454	0.212499	12.530552	-156.969573	5.325460
1.838955	0.213300	12.554930	-157.580777	5.355924
1.842457	0.214102	12.579308	-158.193140	5.386504
1.845958	0.214905	12.603684	-158.806663	5.417201
1.849460	0.215711	12.628059	-159.421345	5.448014
1.852962	0.216517	12.652433	-160.037187	5.478944
1.856463	0.217326	12.676806	-160.654188	5.509990
1.859965	0.218135	12.701178	-161.272348	5.541154
1.863466	0.218947	12.725549	-161.891668	5.572436
1.866968	0.219760	12.749919	-162.512147	5.603835
1.870470	0.220574	12.774288	-163.133786	5.635352
1.873971	0.221390	12.798656	-163.756583	5.666987
1.877473	0.222207	12.823023	-164.380540	5.698741
1.880974	0.223026	12.847389	-165.005656	5.730613
1.884476	0.223847	12.871754	-165.631931	5.762603
1.887978	0.224669	12.896117	-166.259366	5.794713
1.891479	0.225492	12.920480	-166.887959	5.826942
1.894981	0.226318	12.944842	-167.517712	5.859290
1.898482	0.227144	12.969203	-168.148624	5.891758
1.901984	0.227972	12.993562	-168.780694	5.924346
1.905486	0.228802	13.017921	-169.413924	5.957054
1.908987	0.229633	13.042279	-170.048312	5.989882
1.912489	0.230466	13.066636	-170.683860	6.022830
1.915990	0.231300	13.090992	-171.320567	6.055900
1.919492	0.232136	13.115347	-171.958432	6.089090
1.922994	0.232973	13.139701	-172.597456	6.122401
1.926495	0.233812	13.164054	-173.237639	6.155834
1.929997	0.234653	13.188406	-173.878981	6.189389
1.933498	0.235495	13.212757	-174.521482	6.223065
1.937000	0.236338	13.237107	-175.165141	6.256863
