Rioux calculated dielectric data (50Au/50Ag), Alexander Al-Feghali al-fegha.li
1 2 3 0 0 = columns for wave, Re(n), Im(n), eps1, eps2
wave(um) Re(n)  Im(n)    eps1   eps2
0.189700	1.251913	0.979211	0.608431	2.451775
0.193202	1.258297	1.005617	0.572045	2.530729
0.196703	1.265270	1.031398	0.537127	2.609994
0.200205	1.272791	1.056530	0.503741	2.689484
0.203706	1.280819	1.080993	0.471951	2.769112
0.207208	1.289315	1.104767	0.441823	2.848784
0.210710	1.298241	1.127834	0.413418	2.928401
0.214211	1.307561	1.150180	0.386800	3.007862
0.217713	1.317240	1.171790	0.362031	3.087057
0.221214	1.327246	1.192648	0.339172	3.165874
0.224716	1.337544	1.212742	0.318282	3.244192
0.228218	1.348105	1.232058	0.299420	3.321886
0.231719	1.358896	1.250582	0.282643	3.398823
0.235221	1.369888	1.268302	0.268004	3.474865
0.238722	1.381051	1.285203	0.255556	3.549863
0.242224	1.392356	1.301271	0.245348	3.623663
0.245726	1.403771	1.316491	0.237425	3.696103
0.249227	1.415268	1.330847	0.231828	3.767011
0.252729	1.426815	1.344324	0.228594	3.836205
0.256230	1.438382	1.356905	0.227753	3.903496
0.259732	1.449937	1.368571	0.229329	3.968684
0.263234	1.461445	1.379306	0.233338	4.031559
0.266735	1.472873	1.389088	0.239788	4.091900
0.270237	1.484183	1.397899	0.248677	4.149476
0.273738	1.495337	1.405718	0.259988	4.204045
0.277240	1.506294	1.412525	0.273695	4.255357
0.280742	1.517012	1.418298	0.289756	4.303149
0.284243	1.527443	1.423015	0.308110	4.347150
0.287745	1.537539	1.426656	0.328680	4.387080
0.291246	1.547248	1.429199	0.351366	4.422653
0.294748	1.556515	1.430625	0.376050	4.453578
0.298250	1.565279	1.430914	0.402584	4.479558
0.301751	1.573479	1.430048	0.430798	4.500299
0.305253	1.581048	1.428011	0.460495	4.515508
0.308755	1.587917	1.424791	0.491451	4.524900
0.312256	1.594014	1.420376	0.523415	4.528198
0.315758	1.599265	1.414757	0.556111	4.525144
0.319259	1.603593	1.407931	0.589240	4.515497
0.322761	1.606921	1.399895	0.622487	4.499041
0.326263	1.609171	1.390650	0.655526	4.475588
0.329764	1.610270	1.380197	0.688026	4.444977
0.333266	1.610142	1.368537	0.719664	4.407080
0.336767	1.608720	1.355672	0.750135	4.361792
0.340269	1.605937	1.341592	0.779165	4.309026
0.343771	1.601733	1.326283	0.806523	4.248704
0.347272	1.596051	1.309712	0.832034	4.180734
0.350774	1.588834	1.291824	0.855583	4.104988
0.354275	1.580024	1.272536	0.877127	4.021274
0.357777	1.569552	1.251722	0.896686	3.929287
0.361279	1.557333	1.229209	0.914329	3.828575
0.364780	1.543244	1.204760	0.930154	3.718476
0.368282	1.527110	1.178063	0.944233	3.598062
0.371783	1.508673	1.148716	0.956548	3.466073
0.375285	1.487553	1.116214	0.966879	3.320856
0.378787	1.463189	1.079939	0.974655	3.160309
0.382288	1.434766	1.039143	0.978734	2.981854
0.385790	1.401100	0.992959	0.977114	2.782471
0.389291	1.360491	0.940414	0.966557	2.558850
0.392793	1.310499	0.880480	0.942163	2.307737
0.396295	1.247637	0.812171	0.896976	2.026589
0.399796	1.166874	0.734694	0.821821	1.714590
0.403298	1.060725	0.647660	0.705673	1.373978
0.406799	0.917023	0.551423	0.536865	1.011336
0.410301	0.711542	0.448499	0.305141	0.638252
0.413803	0.370726	0.365173	0.004087	0.270758
0.417304	0.059580	0.608686	-0.366949	-0.072531
0.420806	0.203078	0.918348	-0.802122	-0.372992
0.424307	0.263546	1.165779	-1.289584	-0.614473
0.427809	0.285260	1.376287	-1.812793	-0.785200
0.431311	0.281864	1.559389	-2.352247	-0.879072
0.434812	0.260712	1.719154	-2.887519	-0.896407
0.438314	0.227159	1.857737	-3.399586	-0.844002
0.441815	0.185708	1.976790	-3.873210	-0.734210
0.445317	0.140256	2.078089	-4.298781	-0.582929
0.448819	0.094028	2.163750	-4.672972	-0.406905
0.452320	0.049455	2.236166	-4.997991	-0.221179
0.455822	0.008145	2.297804	-5.279836	-0.037432
0.459323	0.029031	2.350988	-5.526304	0.136504
0.462825	0.061775	2.397749	-5.745383	0.296244
0.466327	0.090177	2.439752	-5.944259	0.440018
0.469828	0.114551	2.478308	-6.128886	0.567788
0.473330	0.135324	2.514408	-6.303936	0.680519
0.476831	0.152950	2.548789	-6.472930	0.779674
0.480333	0.167870	2.581982	-6.638453	0.866877
0.483835	0.180489	2.614371	-6.802362	0.943732
0.487336	0.191163	2.646226	-6.965966	1.011723
0.490838	0.200202	2.677733	-7.130174	1.072173
0.494339	0.207867	2.709024	-7.295605	1.126236
0.497841	0.214384	2.740188	-7.462668	1.174905
0.501343	0.219939	2.771282	-7.631629	1.219024
0.504844	0.224689	2.802344	-7.802646	1.259314
0.508346	0.228768	2.833398	-7.975809	1.296380
0.511847	0.232284	2.864457	-8.151156	1.330736
0.515349	0.235331	2.895526	-8.328691	1.362817
0.518851	0.237987	2.926608	-8.508396	1.392990
0.522352	0.240317	2.957700	-8.690238	1.421568
0.525854	0.242374	2.988800	-8.874177	1.448816
0.529356	0.244206	3.019901	-9.060165	1.474959
0.532857	0.245852	3.050999	-9.248154	1.500190
0.536359	0.247344	3.082089	-9.438093	1.524674
0.539860	0.248710	3.113164	-9.629935	1.548553
0.543362	0.249974	3.144220	-9.823632	1.571947
0.546864	0.251156	3.175251	-10.019138	1.594964
0.550365	0.252271	3.206252	-10.216412	1.617692
0.553867	0.253336	3.237220	-10.415414	1.640211
0.557368	0.254362	3.268150	-10.616105	1.662589
0.560870	0.255360	3.299039	-10.818451	1.684885
0.564372	0.256338	3.329884	-11.022419	1.707153
0.567873	0.257304	3.360682	-11.227979	1.729436
0.571375	0.258265	3.391431	-11.435104	1.751774
0.574876	0.259225	3.422129	-11.643766	1.774204
0.578378	0.260190	3.452773	-11.853944	1.796755
0.581880	0.261164	3.483363	-12.065613	1.819455
0.585381	0.262149	3.513898	-12.278755	1.842328
0.588883	0.263149	3.544375	-12.493350	1.865395
0.592384	0.264165	3.574796	-12.709380	1.888675
0.595886	0.265201	3.605158	-12.926830	1.912185
0.599388	0.266258	3.635461	-13.145685	1.935940
0.602889	0.267336	3.665706	-13.365932	1.959953
0.606391	0.268438	3.695892	-13.587556	1.984236
0.609892	0.269564	3.726018	-13.810548	2.008801
0.613394	0.270715	3.756086	-14.034896	2.033656
0.616896	0.271891	3.786095	-14.260589	2.058810
0.620397	0.273093	3.816045	-14.487619	2.084272
0.623899	0.274322	3.845937	-14.715977	2.110049
0.627400	0.275577	3.875771	-14.945655	2.136146
0.630902	0.276859	3.905547	-15.176645	2.162570
0.634404	0.278168	3.935266	-15.408941	2.189326
0.637905	0.279503	3.964928	-15.642536	2.216420
0.641407	0.280866	3.994535	-15.877424	2.243855
0.644908	0.282255	4.024086	-16.113600	2.271635
0.648410	0.283671	4.053582	-16.351058	2.299766
0.651912	0.285113	4.083024	-16.589793	2.328249
0.655413	0.286582	4.112412	-16.829802	2.357089
0.658915	0.288077	4.141747	-17.071079	2.386288
0.662416	0.289599	4.171030	-17.313621	2.415849
0.665918	0.291146	4.200261	-17.557424	2.445776
0.669420	0.292718	4.229441	-17.802485	2.476069
0.672921	0.294316	4.258570	-18.048800	2.506733
0.676423	0.295939	4.287650	-18.296366	2.537768
0.679924	0.297587	4.316681	-18.545180	2.569178
0.683426	0.299260	4.345664	-18.795240	2.600964
0.686928	0.300957	4.374599	-19.046544	2.633128
0.690429	0.302677	4.403487	-19.299087	2.665672
0.693931	0.304422	4.432329	-19.552869	2.698598
0.697432	0.306190	4.461125	-19.807887	2.731908
0.700934	0.307982	4.489877	-20.064139	2.765602
0.704436	0.309797	4.518584	-20.321623	2.799683
0.707937	0.311634	4.547247	-20.580338	2.834153
0.711439	0.313494	4.575867	-20.840281	2.869012
0.714940	0.315376	4.604445	-21.101450	2.904263
0.718442	0.317280	4.632981	-21.363845	2.939907
0.721944	0.319206	4.661476	-21.627464	2.975945
0.725445	0.321154	4.689930	-21.892304	3.012378
0.728947	0.323123	4.718344	-22.158366	3.049209
0.732448	0.325113	4.746719	-22.425647	3.086438
0.735950	0.327124	4.775056	-22.694146	3.124067
0.739452	0.329155	4.803353	-22.963861	3.162098
0.742953	0.331207	4.831614	-23.234793	3.200530
0.746455	0.333279	4.859837	-23.506939	3.239367
0.749957	0.335372	4.888023	-23.780298	3.278608
0.753458	0.337484	4.916174	-24.054870	3.318257
0.756960	0.339615	4.944289	-24.330653	3.358313
0.760461	0.341766	4.972369	-24.607646	3.398778
0.763963	0.343937	5.000414	-24.885848	3.439653
0.767465	0.346126	5.028425	-25.165258	3.480940
0.770966	0.348335	5.056403	-25.445876	3.522640
0.774468	0.350562	5.084348	-25.727700	3.564754
0.777969	0.352807	5.112260	-26.010729	3.607284
0.781471	0.355071	5.140140	-26.294963	3.650231
0.784973	0.357353	5.167988	-26.580400	3.693595
0.788474	0.359654	5.195805	-26.867041	3.737380
0.791976	0.361972	5.223591	-27.154883	3.781585
0.795477	0.364308	5.251347	-27.443926	3.826212
0.798979	0.366661	5.279073	-27.734170	3.871262
0.802481	0.369032	5.306769	-28.025613	3.916737
0.805982	0.371420	5.334436	-28.318254	3.962637
0.809484	0.373826	5.362074	-28.612094	4.008965
0.812985	0.376249	5.389684	-28.907131	4.055722
0.816487	0.378688	5.417266	-29.203364	4.102908
0.819989	0.381144	5.444820	-29.500793	4.150526
0.823490	0.383617	5.472347	-29.799416	4.198575
0.826992	0.386107	5.499847	-30.099234	4.247059
0.830493	0.388613	5.527320	-30.400244	4.295978
0.833995	0.391135	5.554767	-30.702448	4.345333
0.837497	0.393674	5.582188	-31.005843	4.395126
0.840998	0.396229	5.609583	-31.310429	4.445358
0.844500	0.398800	5.636954	-31.616206	4.496030
0.848001	0.401386	5.664299	-31.923172	4.547144
0.851503	0.403989	5.691620	-32.231327	4.598701
0.855005	0.406607	5.718916	-32.540670	4.650702
0.858506	0.409241	5.746188	-32.851201	4.703150
0.862008	0.411890	5.773437	-33.162918	4.756044
0.865509	0.414555	5.800662	-33.475821	4.809386
0.869011	0.417235	5.827864	-33.789909	4.863179
0.872513	0.419931	5.855043	-34.105182	4.917423
0.876014	0.422641	5.882199	-34.421639	4.972119
0.879516	0.425367	5.909333	-34.739278	5.027269
0.883017	0.428108	5.936445	-35.058100	5.082874
0.886519	0.430863	5.963535	-35.378103	5.138935
0.890021	0.433634	5.990603	-35.699287	5.195455
0.893522	0.436419	6.017650	-36.021652	5.252434
0.897024	0.439219	6.044676	-36.345195	5.309874
0.900525	0.442034	6.071681	-36.669918	5.367775
0.904027	0.444863	6.098665	-36.995818	5.426140
0.907529	0.447707	6.125629	-37.322895	5.484970
0.911030	0.450565	6.152573	-37.651148	5.544266
0.914532	0.453437	6.179497	-37.980578	5.604030
0.918033	0.456324	6.206401	-38.311182	5.664262
0.921535	0.459225	6.233285	-38.642960	5.724965
0.925037	0.462141	6.260151	-38.975912	5.786140
0.928538	0.465070	6.286997	-39.310036	5.847787
0.932040	0.468014	6.313824	-39.645332	5.909910
0.935541	0.470971	6.340632	-39.981799	5.972508
0.939043	0.473942	6.367422	-40.319436	6.035583
0.942545	0.476928	6.394193	-40.658243	6.099137
0.946046	0.479927	6.420946	-40.998219	6.163171
0.949548	0.482940	6.447681	-41.339363	6.227686
0.953049	0.485967	6.474399	-41.681674	6.292684
0.956551	0.489007	6.501098	-42.025152	6.358166
0.960053	0.492061	6.527781	-42.369795	6.424134
0.963554	0.495129	6.554445	-42.715603	6.490589
0.967056	0.498210	6.581093	-43.062576	6.557533
0.970558	0.501305	6.607724	-43.410711	6.624966
0.974059	0.504413	6.634338	-43.760009	6.692891
0.977561	0.507534	6.660935	-44.110469	6.761308
0.981062	0.510669	6.687516	-44.462090	6.830219
0.984564	0.513818	6.714081	-44.814871	6.899625
0.988066	0.516979	6.740629	-45.168811	6.969529
0.991567	0.520154	6.767161	-45.523910	7.039930
0.995069	0.523342	6.793677	-45.880166	7.110831
0.998570	0.526543	6.820178	-46.237579	7.182233
1.002072	0.529757	6.846663	-46.596149	7.254138
1.005574	0.532985	6.873132	-46.955873	7.326547
1.009075	0.536225	6.899586	-47.316752	7.399460
1.012577	0.539478	6.926025	-47.678785	7.472881
1.016078	0.542745	6.952449	-48.041970	7.546809
1.019580	0.546024	6.978857	-48.406307	7.621247
1.023082	0.549316	7.005251	-48.771796	7.696195
1.026583	0.552621	7.031630	-49.138434	7.771656
1.030085	0.555939	7.057995	-49.506222	7.847631
1.033586	0.559270	7.084345	-49.875158	7.924121
1.037088	0.562613	7.110680	-50.245242	8.001127
1.040590	0.565970	7.137002	-50.616473	8.078651
1.044091	0.569338	7.163309	-50.988850	8.156694
1.047593	0.572720	7.189602	-51.362371	8.235258
1.051094	0.576114	7.215881	-51.737038	8.314344
1.054596	0.579521	7.242147	-52.112847	8.393954
1.058098	0.582941	7.268399	-52.489799	8.474088
1.061599	0.586372	7.294637	-52.867892	8.554749
1.065101	0.589817	7.320861	-53.247126	8.635937
1.068602	0.593274	7.347072	-53.627500	8.717654
1.072104	0.596743	7.373270	-54.009013	8.799902
1.075606	0.600225	7.399455	-54.391664	8.882682
1.079107	0.603720	7.425627	-54.775452	8.965995
1.082609	0.607226	7.451785	-55.160377	9.049842
1.086110	0.610746	7.477931	-55.546436	9.134226
1.089612	0.614277	7.504063	-55.933630	9.219147
1.093114	0.617821	7.530183	-56.321958	9.304607
1.096615	0.621377	7.556291	-56.711419	9.390607
1.100117	0.624945	7.582385	-57.102011	9.477149
1.103618	0.628526	7.608468	-57.493733	9.564234
1.107120	0.632118	7.634537	-57.886586	9.651863
1.110622	0.635723	7.660595	-58.280568	9.740038
1.114123	0.639341	7.686640	-58.675678	9.828761
1.117625	0.642970	7.712673	-59.071915	9.918031
1.121126	0.646611	7.738694	-59.469278	10.007852
1.124628	0.650265	7.764703	-59.867766	10.098224
1.128130	0.653930	7.790700	-60.267379	10.189149
1.131631	0.657608	7.816685	-60.668115	10.280628
1.135133	0.661298	7.842658	-61.069973	10.372663
1.138634	0.664999	7.868620	-61.472953	10.465254
1.142136	0.668713	7.894570	-61.877053	10.558403
1.145638	0.672439	7.920508	-62.282273	10.652113
1.149139	0.676176	7.946435	-62.688612	10.746383
1.152641	0.679926	7.972350	-63.096068	10.841215
1.156142	0.683687	7.998254	-63.504641	10.936611
1.159644	0.687461	8.024147	-63.914330	11.032573
1.163146	0.691246	8.050028	-64.325133	11.129101
1.166647	0.695043	8.075898	-64.737051	11.226196
1.170149	0.698852	8.101758	-65.150081	11.323861
1.173651	0.702673	8.127606	-65.564223	11.422097
1.177152	0.706506	8.153443	-65.979475	11.520904
1.180654	0.710350	8.179269	-66.395838	11.620285
1.184155	0.714206	8.205084	-66.813310	11.720240
1.187657	0.718074	8.230888	-67.231889	11.820772
1.191159	0.721954	8.256682	-67.651575	11.921881
1.194660	0.725845	8.282465	-68.072368	12.023569
1.198162	0.729748	8.308237	-68.494265	12.125836
1.201663	0.733663	8.333998	-68.917266	12.228686
1.205165	0.737589	8.359749	-69.341370	12.332118
1.208667	0.741527	8.385490	-69.766576	12.436134
1.212168	0.745477	8.411220	-70.192883	12.540735
1.215670	0.749438	8.436939	-70.620290	12.645924
1.219171	0.753411	8.462649	-71.048795	12.751701
1.222673	0.757395	8.488348	-71.478399	12.858067
1.226175	0.761391	8.514036	-71.909099	12.965024
1.229676	0.765399	8.539715	-72.340895	13.072574
1.233178	0.769418	8.565383	-72.773786	13.180717
1.236679	0.773448	8.591041	-73.207771	13.289455
1.240181	0.777491	8.616690	-73.642848	13.398789
1.243683	0.781544	8.642328	-74.079018	13.508721
1.247184	0.785609	8.667956	-74.516277	13.619251
1.250686	0.789686	8.693574	-74.954627	13.730382
1.254187	0.793774	8.719182	-75.394065	13.842115
1.257689	0.797873	8.744781	-75.834591	13.954450
1.261191	0.801984	8.770369	-76.276203	14.067389
1.264692	0.806106	8.795948	-76.718900	14.180935
1.268194	0.810240	8.821517	-77.162683	14.295086
1.271695	0.814385	8.847077	-77.607548	14.409847
1.275197	0.818541	8.872627	-78.053496	14.525216
1.278699	0.822709	8.898167	-78.500524	14.641197
1.282200	0.826888	8.923697	-78.948634	14.757789
1.285702	0.831078	8.949219	-79.397822	14.874995
1.289203	0.835279	8.974730	-79.848088	14.992816
1.292705	0.839492	9.000232	-80.299431	15.111253
1.296207	0.843717	9.025725	-80.751851	15.230307
1.299708	0.847952	9.051208	-81.205345	15.349979
1.303210	0.852199	9.076682	-81.659912	15.470272
1.306711	0.856457	9.102146	-82.115553	15.591186
1.310213	0.860726	9.127602	-82.572265	15.712722
1.313715	0.865006	9.153048	-83.030047	15.834883
1.317216	0.869298	9.178484	-83.488899	15.957668
1.320718	0.873600	9.203912	-83.948820	16.081080
1.324219	0.877914	9.229330	-84.409807	16.205120
1.327721	0.882239	9.254740	-84.871861	16.329788
1.331223	0.886575	9.280140	-85.334980	16.455087
1.334724	0.890923	9.305531	-85.799163	16.581018
1.338226	0.895281	9.330913	-86.264408	16.707581
1.341727	0.899651	9.356286	-86.730716	16.834778
1.345229	0.904031	9.381650	-87.198084	16.962611
1.348731	0.908423	9.407005	-87.666512	17.091081
1.352232	0.912826	9.432351	-88.135998	17.220188
1.355734	0.917240	9.457688	-88.606541	17.349935
1.359235	0.921665	9.483017	-89.078141	17.480322
1.362737	0.926101	9.508336	-89.550796	17.611351
1.366239	0.930547	9.533647	-90.024504	17.743022
1.369740	0.935005	9.558949	-90.499266	17.875339
1.373242	0.939474	9.584242	-90.975080	18.008300
1.376743	0.943954	9.609526	-91.451944	18.141909
1.380245	0.948445	9.634802	-91.929857	18.276165
1.383747	0.952947	9.660069	-92.408819	18.411071
1.387248	0.957460	9.685327	-92.888828	18.546627
1.390750	0.961984	9.710577	-93.369883	18.682835
1.394252	0.966519	9.735817	-93.851983	18.819696
1.397753	0.971064	9.761050	-94.335127	18.957212
1.401255	0.975621	9.786274	-94.819314	19.095382
1.404756	0.980188	9.811489	-95.304542	19.234210
1.408258	0.984766	9.836695	-95.790811	19.373696
1.411760	0.989356	9.861893	-96.278119	19.513840
1.415261	0.993956	9.887083	-96.766465	19.654646
1.418763	0.998567	9.912264	-97.255848	19.796113
1.422264	1.003188	9.937437	-97.746266	19.938242
1.425766	1.007821	9.962601	-98.237720	20.081036
1.429268	1.012464	9.987757	-98.730207	20.224496
1.432769	1.017119	10.012904	-99.223726	20.368621
1.436271	1.021784	10.038044	-99.718276	20.513415
1.439772	1.026459	10.063174	-100.213856	20.658878
1.443274	1.031146	10.088297	-100.710466	20.805011
1.446776	1.035843	10.113411	-101.208102	20.951815
1.450277	1.040551	10.138516	-101.706766	21.099292
1.453779	1.045270	10.163614	-102.206455	21.247442
1.457280	1.050000	10.188703	-102.707167	21.396268
1.460782	1.054740	10.213784	-103.208903	21.545770
1.464284	1.059491	10.238856	-103.711661	21.695950
1.467785	1.064253	10.263921	-104.215439	21.846808
1.471287	1.069025	10.288977	-104.720237	21.998346
1.474788	1.073808	10.314025	-105.226053	22.150564
1.478290	1.078602	10.339065	-105.732886	22.303465
1.481792	1.083406	10.364097	-106.240735	22.457050
1.485293	1.088221	10.389120	-106.749598	22.611319
1.488795	1.093047	10.414136	-107.259475	22.766274
1.492296	1.097883	10.439143	-107.770365	22.921916
1.495798	1.102730	10.464143	-108.282265	23.078245
1.499300	1.107587	10.489134	-108.795176	23.235264
1.502801	1.112455	10.514117	-109.309095	23.392974
1.506303	1.117334	10.539092	-109.824022	23.551375
1.509804	1.122223	10.564059	-110.339955	23.710469
1.513306	1.127123	10.589018	-110.856893	23.870257
1.516808	1.132034	10.613969	-111.374835	24.030740
1.520309	1.136955	10.638912	-111.893780	24.191919
1.523811	1.141886	10.663847	-112.413726	24.353796
1.527312	1.146828	10.688774	-112.934672	24.516371
1.530814	1.151781	10.713693	-113.456618	24.679646
1.534316	1.156744	10.738604	-113.979561	24.843622
1.537817	1.161717	10.763507	-114.503502	25.008300
1.541319	1.166701	10.788402	-115.028437	25.173681
1.544820	1.171696	10.813290	-115.554367	25.339767
1.548322	1.176700	10.838169	-116.081289	25.506558
1.551824	1.181716	10.863041	-116.609204	25.674055
1.555325	1.186742	10.887905	-117.138109	25.842260
1.558827	1.191778	10.912760	-117.668003	26.011174
1.562328	1.196825	10.937608	-118.198885	26.180798
1.565830	1.201882	10.962448	-118.730754	26.351134
1.569332	1.206949	10.987281	-119.263609	26.522181
1.572833	1.212027	11.012105	-119.797448	26.693942
1.576335	1.217115	11.036922	-120.332271	26.866417
1.579836	1.222214	11.061731	-120.868075	27.039608
1.583338	1.227323	11.086532	-121.404859	27.213515
1.586840	1.232443	11.111325	-121.942624	27.388140
1.590341	1.237572	11.136110	-122.481366	27.563485
1.593843	1.242712	11.160888	-123.021085	27.739549
1.597344	1.247863	11.185658	-123.561780	27.916334
1.600846	1.253024	11.210420	-124.103450	28.093842
1.604348	1.258195	11.235175	-124.646092	28.272073
1.607849	1.263376	11.259921	-125.189707	28.451028
1.611351	1.268568	11.284660	-125.734292	28.630709
1.614853	1.273770	11.309391	-126.279847	28.811116
1.618354	1.278982	11.334115	-126.826370	28.992251
1.621856	1.284204	11.358831	-127.373859	29.174115
1.625357	1.289437	11.383539	-127.922315	29.356709
1.628859	1.294680	11.408240	-128.471734	29.540034
1.632361	1.299933	11.432932	-129.022117	29.724091
1.635862	1.305196	11.457618	-129.573462	29.908880
1.639364	1.310470	11.482295	-130.125767	30.094404
1.642865	1.315754	11.506965	-130.679032	30.280664
1.646367	1.321048	11.531627	-131.233255	30.467659
1.649869	1.326352	11.556282	-131.788434	30.655392
1.653370	1.331666	11.580928	-132.344570	30.843863
1.656872	1.336991	11.605568	-132.901659	31.033074
1.660373	1.342325	11.630199	-133.459701	31.223026
1.663875	1.347670	11.654823	-134.018695	31.413718
1.667377	1.353025	11.679440	-134.578640	31.605154
1.670878	1.358390	11.704049	-135.139533	31.797333
1.674380	1.363766	11.728650	-135.701375	31.990257
1.677881	1.369151	11.753244	-136.264163	32.183927
1.681383	1.374546	11.777830	-136.827896	32.378344
1.684885	1.379952	11.802408	-137.392573	32.573508
1.688386	1.385367	11.826979	-137.958193	32.769421
1.691888	1.390793	11.851543	-138.524755	32.966085
1.695389	1.396229	11.876098	-139.092257	33.163499
1.698891	1.401674	11.900647	-139.660697	33.361665
1.702393	1.407130	11.925187	-140.230075	33.560584
1.705894	1.412596	11.949720	-140.800390	33.760258
1.709396	1.418072	11.974246	-141.371639	33.960686
1.712897	1.423558	11.998764	-141.943822	34.161870
1.716399	1.429054	12.023275	-142.516937	34.363812
1.719901	1.434560	12.047778	-143.090984	34.566511
1.723402	1.440076	12.072273	-143.665960	34.769970
1.726904	1.445601	12.096761	-144.241865	34.974188
1.730405	1.451137	12.121242	-144.818697	35.179168
1.733907	1.456683	12.145714	-145.396455	35.384910
1.737409	1.462239	12.170180	-145.975137	35.591415
1.740910	1.467804	12.194638	-146.554743	35.798684
1.744412	1.473380	12.219088	-147.135271	36.006718
1.747913	1.478965	12.243531	-147.716719	36.215519
1.751415	1.484561	12.267967	-148.299086	36.425086
1.754917	1.490166	12.292395	-148.882372	36.635421
1.758418	1.495781	12.316815	-149.466575	36.846526
1.761920	1.501406	12.341228	-150.051692	37.058400
1.765421	1.507041	12.365634	-150.637724	37.271046
1.768923	1.512686	12.390032	-151.224669	37.484463
1.772425	1.518341	12.414422	-151.812525	37.698653
1.775926	1.524006	12.438806	-152.401291	37.913617
1.779428	1.529680	12.463181	-152.990966	38.129356
1.782929	1.535364	12.487549	-153.581549	38.345871
1.786431	1.541058	12.511910	-154.173037	38.563163
1.789933	1.546762	12.536264	-154.765431	38.781232
1.793434	1.552476	12.560609	-155.358728	39.000080
1.796936	1.558199	12.584948	-155.952927	39.219708
1.800437	1.563932	12.609279	-156.548027	39.440116
1.803939	1.569675	12.633602	-157.144027	39.661306
1.807441	1.575428	12.657918	-157.740925	39.883278
1.810942	1.581190	12.682227	-158.338719	40.106034
1.814444	1.586963	12.706528	-158.937409	40.329574
1.817945	1.592745	12.730822	-159.536994	40.553899
1.821447	1.598536	12.755108	-160.137471	40.779011
1.824949	1.604338	12.779387	-160.738840	41.004909
1.828450	1.610149	12.803659	-161.341099	41.231596
1.831952	1.615970	12.827923	-161.944247	41.459072
1.835454	1.621800	12.852180	-162.548282	41.687338
1.838955	1.627641	12.876429	-163.153204	41.916394
1.842457	1.633490	12.900671	-163.759010	42.146242
1.845958	1.639350	12.924905	-164.365700	42.376883
1.849460	1.645219	12.949132	-164.973272	42.608318
1.852962	1.651098	12.973351	-165.581725	42.840547
1.856463	1.656986	12.997564	-166.191057	43.073571
1.859965	1.662884	13.021768	-166.801267	43.307392
1.863466	1.668792	13.045966	-167.412354	43.542010
1.866968	1.674709	13.070156	-168.024317	43.777426
1.870470	1.680636	13.094338	-168.637153	44.013641
1.873971	1.686573	13.118513	-169.250863	44.250656
1.877473	1.692519	13.142681	-169.865443	44.488471
1.880974	1.698475	13.166841	-170.480894	44.727088
1.884476	1.704440	13.190994	-171.097213	44.966508
1.887978	1.710414	13.215140	-171.714400	45.206731
1.891479	1.716399	13.239278	-172.332452	45.447759
1.894981	1.722393	13.263409	-172.951369	45.689591
1.898482	1.728396	13.287532	-173.571150	45.932230
1.901984	1.734409	13.311648	-174.191792	46.175676
1.905486	1.740431	13.335756	-174.813294	46.419929
1.908987	1.746463	13.359857	-175.435656	46.664991
1.912489	1.752504	13.383951	-176.058876	46.910862
1.915990	1.758555	13.408037	-176.682952	47.157544
1.919492	1.764615	13.432116	-177.307883	47.405037
1.922994	1.770685	13.456188	-177.933667	47.653342
1.926495	1.776764	13.480252	-178.560304	47.902460
1.929997	1.782853	13.504309	-179.187792	48.152391
1.933498	1.788951	13.528358	-179.816130	48.403138
1.937000	1.795058	13.552400	-180.445316	48.654699
