Combined dielectric data (0Au/100Ag), Alexander Al-Feghali al-fegha.li
1 2 3 0 0 = columns for wave, Re(n), Im(n), eps1, eps2
wave(um) Re(n)  Im(n)    eps1   eps2
0.187900	1.070000	1.210000	-0.324000	2.590000
0.191600	1.100000	1.230000	-0.308000	2.710000
0.195300	1.120000	1.250000	-0.321000	2.810000
0.199300	1.140000	1.280000	-0.331000	2.910000
0.203300	1.150000	1.300000	-0.357000	2.980000
0.207300	1.180000	1.310000	-0.329000	3.100000
0.211900	1.200000	1.320000	-0.316000	3.180000
0.216400	1.220000	1.340000	-0.296000	3.260000
0.221400	1.250000	1.340000	-0.238000	3.360000
0.226200	1.260000	1.340000	-0.219000	3.390000
0.231300	1.280000	1.360000	-0.203000	3.470000
0.237100	1.280000	1.370000	-0.230000	3.500000
0.242600	1.300000	1.380000	-0.209000	3.580000
0.249000	1.310000	1.390000	-0.213000	3.640000
0.255100	1.380000	1.390000	-0.036000	3.840000
0.261600	1.350000	1.390000	-0.101000	3.740000
0.268900	1.380000	1.370000	0.022000	3.790000
0.276100	1.410000	1.330000	0.217000	3.750000
0.284400	1.410000	1.260000	0.390000	3.560000
0.292400	1.890000	1.160000	2.224000	4.390000
0.300900	1.340000	0.960000	0.866000	2.580000
0.310700	1.130000	0.620000	0.897000	1.390000
0.320400	0.810000	0.390000	0.502000	0.640000
0.331500	0.170000	0.830000	-0.658000	0.280000
0.342500	0.140000	1.140000	-1.285000	0.320000
0.354200	0.100000	1.420000	-2.004000	0.280000
0.367900	0.070000	1.660000	-2.741000	0.230000
0.381500	0.050000	1.860000	-3.472000	0.190000
0.397400	0.050000	2.070000	-4.282000	0.210000
0.413300	0.050000	2.270000	-5.173000	0.230000
0.430500	0.040000	2.460000	-6.060000	0.200000
0.450900	0.040000	2.660000	-7.058000	0.210000
0.471400	0.050000	2.870000	-8.229000	0.290000
0.495900	0.050000	3.090000	-9.564000	0.310000
0.520900	0.050000	3.320000	-11.046000	0.330000
0.548600	0.060000	3.590000	-12.856000	0.430000
0.582100	0.050000	3.860000	-14.882000	0.390000
0.616800	0.060000	4.150000	-17.236000	0.500000
0.659500	0.050000	4.480000	-20.095000	0.450000
0.704500	0.040000	4.840000	-23.405000	0.390000
0.756000	0.030000	5.240000	-27.478000	0.310000
0.821100	0.040000	5.730000	-32.797000	0.460000
0.892000	0.040000	6.310000	-39.840000	0.500000
0.984000	0.040000	6.990000	-48.886000	0.560000
1.088000	0.040000	7.790000	-60.760000	0.620000
1.216000	0.090000	8.830000	-77.925000	1.590000
1.393000	0.130000	10.100000	-101.993000	2.630000
1.610000	0.150000	11.850000	-140.400000	3.550000
1.937000	0.240000	14.080000	-198.189000	6.760000
