Peña-Rodríguez & Rioux calculated dielectric data (76Au/24Ag) prepared by Alexander Al-Feghali al-fegha.li, Blum and Cosa Lab, McGill University
1 2 3 0 0 = columns for wave, Re(n), Im(n), eps1, eps2
wave(um)   Re(n)     Im(n)     eps1      eps2
0.180000	1.033772	1.035349	-0.003263	2.140631
0.189146	1.050449	1.121165	-0.153569	2.355452
0.198291	1.071826	1.202813	-0.297948	2.578414
0.207437	1.097136	1.280102	-0.434953	2.808891
0.216583	1.125769	1.352910	-0.563009	3.046129
0.225729	1.157250	1.421131	-0.680386	3.289209
0.234874	1.191204	1.484631	-0.785163	3.536995
0.244020	1.227325	1.543217	-0.875193	3.788058
0.253166	1.265355	1.596613	-0.948049	4.040565
0.262312	1.305049	1.644424	-1.000979	4.292109
0.271457	1.346138	1.686102	-1.030855	4.539452
0.280603	1.388268	1.720889	-1.034173	4.778112
0.289749	1.430898	1.747748	-1.007155	5.001701
0.298894	1.473098	1.765282	-0.946202	5.200868
0.308040	1.513160	1.771690	-0.849230	5.361701
0.317186	1.547867	1.764966	-0.719213	5.463868
0.326332	1.571382	1.743996	-0.572282	5.480969
0.335477	1.574926	1.711809	-0.449899	5.391944
0.344623	1.551561	1.680026	-0.415148	5.213325
0.353769	1.506527	1.664665	-0.501486	5.015727
0.362915	1.455812	1.671281	-0.673790	4.866142
0.372060	1.411379	1.692743	-0.873388	4.778201
0.381206	1.376226	1.719248	-1.061814	4.732147
0.390352	1.348284	1.743467	-1.221809	4.701377
0.399497	1.323410	1.760588	-1.348255	4.659960
0.408643	1.296028	1.767613	-1.444768	4.581751
0.417789	1.258683	1.763810	-1.526744	4.440155
0.426935	1.202428	1.752944	-1.626979	4.215578
0.436080	1.120704	1.745493	-1.790769	3.912361
0.445226	1.015260	1.755521	-2.051104	3.564620
0.454372	0.896282	1.792994	-2.411506	3.214054
0.463518	0.776636	1.860116	-2.856870	2.889266
0.472663	0.667040	1.952794	-3.368460	2.605184
0.481809	0.573976	2.063578	-3.928907	2.368890
0.490955	0.499551	2.184434	-4.522203	2.182473
0.500101	0.442548	2.308671	-5.134113	2.043394
0.509246	0.399975	2.431830	-5.753819	1.945344
0.518392	0.368490	2.551590	-6.374828	1.880470
0.527538	0.345217	2.667100	-6.994248	1.841456
0.536683	0.327975	2.778305	-7.611409	1.822430
0.545829	0.315198	2.885497	-8.226742	1.819006
0.554975	0.305778	2.989083	-8.841118	1.827993
0.564121	0.298930	3.089479	-9.455524	1.847076
0.573266	0.294090	3.187068	-10.070914	1.874567
0.582412	0.290845	3.282186	-10.688153	1.909217
0.591558	0.288892	3.375124	-11.308002	1.950093
0.600704	0.287999	3.466131	-11.931123	1.996487
0.609849	0.287990	3.555422	-12.558085	2.047855
0.618995	0.288728	3.643178	-13.189381	2.103775
0.628141	0.290104	3.729557	-13.825432	2.163920
0.637286	0.292032	3.814693	-14.466603	2.228028
0.646432	0.294443	3.898706	-15.113210	2.295895
0.655578	0.297280	3.981696	-15.765527	2.367355
0.664724	0.300496	4.063753	-16.423792	2.442279
0.673869	0.304052	4.144956	-17.088213	2.520561
0.683015	0.307916	4.225374	-17.758970	2.602119
0.692161	0.312061	4.305068	-18.436225	2.686886
0.701307	0.316463	4.384092	-19.120117	2.774810
0.710452	0.321104	4.462497	-19.810768	2.865850
0.719598	0.325965	4.540324	-20.508289	2.959976
0.728744	0.331033	4.617614	-21.212776	3.057165
0.737889	0.336294	4.694402	-21.924313	3.157400
0.747035	0.341738	4.770719	-22.642975	3.260672
0.756181	0.347355	4.846595	-23.368830	3.366974
0.765327	0.353135	4.922057	-24.101937	3.476305
0.774472	0.359073	4.997127	-24.842348	3.588666
0.783618	0.365161	5.071829	-25.590109	3.704063
0.792764	0.371392	5.146182	-26.345261	3.822504
0.801910	0.377763	5.220206	-27.107841	3.943997
0.811055	0.384267	5.293915	-27.877880	4.068556
0.820201	0.390901	5.367328	-28.655406	4.196192
0.829347	0.397662	5.440457	-29.440443	4.326922
0.838492	0.404544	5.513317	-30.233013	4.460761
0.847638	0.411546	5.585920	-31.033133	4.597726
0.856784	0.418664	5.658277	-31.840820	4.737837
0.865930	0.425896	5.730399	-32.656087	4.881111
0.875075	0.433240	5.802296	-33.478944	5.027570
0.884221	0.440692	5.873977	-34.309401	5.177234
0.893367	0.448252	5.945452	-35.147464	5.330124
0.902513	0.455917	6.016727	-35.993140	5.486262
0.911658	0.463686	6.087811	-36.846432	5.645670
0.920804	0.471557	6.158710	-37.707343	5.808370
0.929950	0.479529	6.229432	-38.575874	5.974387
0.939095	0.487600	6.299982	-39.452024	6.143742
0.948241	0.495769	6.370367	-40.335792	6.316461
0.957387	0.504035	6.440592	-41.227176	6.492565
0.966533	0.512396	6.510662	-42.126173	6.672081
0.975678	0.520853	6.580582	-43.032778	6.855031
0.984824	0.529403	6.650357	-43.946986	7.041441
0.993970	0.538046	6.719991	-44.868791	7.231334
1.003116	0.546782	6.789489	-45.798187	7.424736
1.012261	0.555608	6.858853	-46.735165	7.621671
1.021407	0.564525	6.928088	-47.679718	7.822164
1.030553	0.573532	6.997198	-48.631837	8.026240
1.039698	0.582629	7.066185	-49.591513	8.233923
1.048844	0.591813	7.135053	-50.558735	8.445239
1.057990	0.601086	7.203804	-51.533493	8.660213
1.067136	0.610446	7.272443	-52.515776	8.878870
1.076281	0.619893	7.340970	-53.505573	9.101234
1.085427	0.629426	7.409389	-54.502871	9.327331
1.094573	0.639046	7.477703	-55.507659	9.557186
1.103719	0.648750	7.545913	-56.519922	9.790824
1.112864	0.658540	7.614022	-57.539649	10.028269
1.122010	0.668413	7.682031	-58.566826	10.269546
1.131156	0.678371	7.749944	-59.601437	10.514681
1.140302	0.688413	7.817761	-60.643471	10.763699
1.149447	0.698538	7.885484	-61.692910	11.016623
1.158593	0.708746	7.953117	-62.749741	11.273479
1.167739	0.719036	8.020658	-63.813949	11.534291
1.176884	0.729409	8.088112	-64.885517	11.799085
1.186030	0.739864	8.155478	-65.964431	12.067884
1.195176	0.750400	8.222759	-67.050672	12.340712
1.204322	0.761017	8.289956	-68.144227	12.617596
1.213467	0.771715	8.357070	-69.245077	12.898557
1.222613	0.782494	8.424102	-70.353205	13.183622
1.231759	0.793353	8.491054	-71.468596	13.472814
1.240905	0.804293	8.557927	-72.591230	13.766156
1.250050	0.815312	8.624722	-73.721092	14.063674
1.259196	0.826410	8.691439	-74.858162	14.365390
1.268342	0.837588	8.758081	-76.002423	14.671330
1.277487	0.848845	8.824647	-77.153856	14.981515
1.286633	0.860181	8.891139	-78.312444	15.295970
1.295779	0.871595	8.957558	-79.478168	15.614719
1.304925	0.883087	9.023904	-80.651008	15.937785
1.314070	0.894657	9.090179	-81.830946	16.265190
1.323216	0.906305	9.156383	-83.017963	16.596959
1.332362	0.918031	9.222517	-84.212039	16.933114
1.341508	0.929834	9.288581	-85.413154	17.273678
1.350653	0.941714	9.354577	-86.621290	17.618675
1.359799	0.953671	9.420505	-87.836427	17.968126
1.368945	0.965705	9.486365	-89.058543	18.322055
1.378090	0.977815	9.552159	-90.287620	18.680483
1.387236	0.990001	9.617886	-91.523637	19.043434
1.396382	1.002263	9.683548	-92.766574	19.410930
1.405528	1.014601	9.749145	-94.016409	19.782993
1.414673	1.027015	9.814677	-95.273123	20.159644
1.423819	1.039504	9.880145	-96.536694	20.540906
1.432965	1.052069	9.945549	-97.807102	20.926801
1.442111	1.064708	10.010890	-99.084325	21.317350
1.451256	1.077422	10.076169	-100.368343	21.712575
1.460402	1.090211	10.141385	-101.659133	22.112497
1.469548	1.103074	10.206539	-102.956675	22.517137
1.478693	1.116011	10.271632	-104.260946	22.926518
1.487839	1.129023	10.336664	-105.571926	23.340660
1.496985	1.142108	10.401635	-106.889591	23.759583
1.506131	1.155267	10.466545	-108.213922	24.183309
1.515276	1.168499	10.531395	-109.544894	24.611858
1.524422	1.181805	10.596186	-110.882487	25.045252
1.533568	1.195184	10.660917	-112.226677	25.483510
1.542714	1.208635	10.725588	-113.577443	25.926652
1.551859	1.222160	10.790201	-114.934762	26.374699
1.561005	1.235757	10.854755	-116.298612	26.827672
1.570151	1.249426	10.919251	-117.668970	27.285589
1.579296	1.263167	10.983688	-119.045813	27.748471
1.588442	1.276981	11.048068	-120.429118	28.216337
1.597588	1.290866	11.112389	-121.818862	28.689207
1.606734	1.304823	11.176654	-123.215023	29.167100
1.615879	1.318851	11.240861	-124.617577	29.650036
1.625025	1.332950	11.305010	-126.026502	30.138034
1.634171	1.347121	11.369103	-127.441773	30.631112
1.643317	1.361362	11.433139	-128.863367	31.129290
1.652462	1.375674	11.497119	-130.291261	31.632586
1.661608	1.390057	11.561042	-131.725432	32.141019
1.670754	1.404510	11.624909	-133.165855	32.654607
1.679899	1.419034	11.688720	-134.612508	33.173369
1.689045	1.433627	11.752474	-136.065366	33.697323
1.698191	1.448290	11.816173	-137.524405	34.226487
1.707337	1.463023	11.879816	-138.989602	34.760879
1.716482	1.477825	11.943404	-140.460933	35.300517
1.725628	1.492696	12.006936	-141.938373	35.845417
1.734774	1.507637	12.070413	-143.421899	36.395599
1.743920	1.522646	12.133834	-144.911486	36.951079
1.753065	1.537725	12.197201	-146.407110	37.511874
1.762211	1.552872	12.260512	-147.908746	38.078002
1.771357	1.568087	12.323768	-149.416371	38.649479
1.780503	1.583370	12.386970	-150.929959	39.226323
1.789648	1.598722	12.450116	-152.449487	39.808550
1.798794	1.614141	12.513208	-153.974930	40.396177
1.807940	1.629629	12.576246	-155.506262	40.989219
1.817085	1.645183	12.639228	-157.043460	41.587694
1.826231	1.660805	12.702156	-158.586499	42.191617
1.835377	1.676495	12.765030	-160.135354	42.801005
1.844523	1.692251	12.827849	-161.689999	43.415873
1.853668	1.708074	12.890614	-163.250411	44.036237
1.862814	1.723963	12.953324	-164.816563	44.662113
1.871960	1.739919	13.015981	-166.388432	45.293516
1.881106	1.755942	13.078583	-167.965992	45.930461
1.890251	1.772030	13.141130	-169.549218	46.572964
1.899397	1.788185	13.203624	-171.138085	47.221039
1.908543	1.804405	13.266064	-172.732567	47.874702
1.917688	1.820691	13.328449	-174.332639	48.533966
1.926834	1.837042	13.390780	-175.938277	49.198848
1.935980	1.853458	13.453058	-177.549454	49.869361
1.945126	1.869940	13.515281	-179.166146	50.545520
1.954271	1.886486	13.577450	-180.788326	51.227338
1.963417	1.903097	13.639566	-182.415970	51.914830
1.972563	1.919772	13.701627	-184.049052	52.608010
1.981709	1.936512	13.763634	-185.687546	53.306892
1.990854	1.953316	13.825588	-187.331427	54.011489
2.000000	1.970184	13.887487	-188.980670	54.721814
