Peña-Rodríguez & Rioux calculated dielectric data (26Au/74Ag) prepared by Alexander Al-Feghali al-fegha.li, Blum and Cosa Lab, McGill University
1 2 3 0 0 = columns for wave, Re(n), Im(n), eps1, eps2
wave(um)   Re(n)     Im(n)     eps1      eps2
0.180000	0.973213	1.009955	-0.072866	1.965803
0.189146	0.995764	1.084608	-0.184828	2.160027
0.198291	1.022541	1.154182	-0.286546	2.360396
0.207437	1.052969	1.218375	-0.375694	2.565823
0.216583	1.086622	1.276837	-0.449566	2.774879
0.225729	1.123177	1.329097	-0.504971	2.985621
0.234874	1.162374	1.374485	-0.538095	3.195332
0.244020	1.203954	1.412038	-0.544346	3.400055
0.253166	1.247545	1.440344	-0.518221	3.593788
0.262312	1.292432	1.457327	-0.453420	3.766991
0.271457	1.336987	1.459955	-0.343933	3.903882
0.280603	1.377323	1.444163	-0.188587	3.978158
0.289749	1.404598	1.406510	-0.005373	3.951163
0.298894	1.404118	1.351733	0.144364	3.795986
0.308040	1.370163	1.300006	0.187330	3.562439
0.317186	1.320434	1.262182	0.150441	3.333256
0.326332	1.260664	1.221194	0.097960	3.079031
0.335477	1.164524	1.180348	-0.037104	2.749086
0.344623	1.038268	1.172634	-0.297071	2.435016
0.353769	0.905940	1.201073	-0.621849	2.176199
0.362915	0.778642	1.258866	-0.978462	1.960412
0.372060	0.662352	1.339682	-1.356038	1.774682
0.381206	0.560375	1.437160	-1.751408	1.610697
0.390352	0.473509	1.545452	-2.164211	1.463570
0.399497	0.400821	1.660095	-2.595258	1.330800
0.408643	0.340750	1.778197	-3.045874	1.211840
0.417789	0.291926	1.898045	-3.517354	1.108178
0.426935	0.253587	2.018431	-4.009757	1.023695
0.436080	0.225420	2.137785	-4.519311	0.963799
0.445226	0.206444	2.253855	-5.037245	0.930590
0.454372	0.194357	2.365030	-5.555593	0.919319
0.463518	0.186778	2.471177	-6.071828	0.923125
0.472663	0.182107	2.572902	-6.586663	0.937089
0.481809	0.179393	2.670912	-7.101592	0.958287
0.490955	0.178066	2.765815	-7.618027	0.984994
0.500101	0.177768	2.858100	-8.137134	1.016156
0.509246	0.178263	2.948156	-8.659844	1.051093
0.518392	0.179389	3.036293	-9.186895	1.089356
0.527538	0.181031	3.122764	-9.718880	1.130634
0.536683	0.183103	3.207773	-10.256279	1.174708
0.545829	0.185542	3.291491	-10.799484	1.221422
0.554975	0.188299	3.374059	-11.348818	1.270661
0.564121	0.191334	3.455598	-11.904552	1.322344
0.573266	0.194617	3.536211	-12.466912	1.376410
0.582412	0.198123	3.615984	-13.036089	1.432818
0.591558	0.201832	3.694994	-13.612247	1.491539
0.600704	0.205728	3.773307	-14.195525	1.552552
0.609849	0.209797	3.850981	-14.786043	1.615846
0.618995	0.214026	3.928067	-15.383905	1.681417
0.628141	0.218406	4.004610	-15.989200	1.749265
0.637286	0.222929	4.080650	-16.602006	1.819393
0.646432	0.227588	4.156223	-17.222390	1.891810
0.655578	0.232375	4.231360	-17.850413	1.966526
0.664724	0.237286	4.306092	-18.486126	2.043553
0.673869	0.242316	4.380444	-19.129573	2.122907
0.683015	0.247461	4.454439	-19.780794	2.204603
0.692161	0.252717	4.528100	-20.439823	2.288660
0.701307	0.258081	4.601445	-21.106691	2.375096
0.710452	0.263551	4.674493	-21.781423	2.463931
0.719598	0.269122	4.747259	-22.464042	2.555185
0.728744	0.274794	4.819759	-23.154567	2.648881
0.737889	0.280564	4.892007	-23.853016	2.745040
0.747035	0.286430	4.964015	-24.559401	2.843685
0.756181	0.292391	5.035795	-25.273736	2.944840
0.765327	0.298445	5.107357	-25.996030	3.048527
0.774472	0.304590	5.178713	-26.726291	3.154770
0.783618	0.310826	5.249870	-27.464526	3.263594
0.792764	0.317151	5.320839	-28.210740	3.375023
0.801910	0.323565	5.391626	-28.964936	3.489082
0.811055	0.330066	5.462239	-29.727117	3.605795
0.820201	0.336653	5.532686	-30.497283	3.725189
0.829347	0.343325	5.602973	-31.275436	3.847286
0.838492	0.350083	5.673106	-32.061573	3.972114
0.847638	0.356924	5.743090	-32.855693	4.099697
0.856784	0.363849	5.812932	-33.657794	4.230062
0.865930	0.370857	5.882636	-34.467872	4.363232
0.875075	0.377947	5.952207	-35.285922	4.499235
0.884221	0.385118	6.021649	-36.111941	4.638095
0.893367	0.392371	6.090967	-36.945922	4.779838
0.902513	0.399704	6.160164	-37.787860	4.924490
0.911658	0.407118	6.229245	-38.637747	5.072077
0.920804	0.414612	6.298212	-39.495578	5.222625
0.929950	0.422185	6.367070	-40.361343	5.376158
0.939095	0.429837	6.435821	-41.235035	5.532703
0.948241	0.437567	6.504468	-42.116645	5.692286
0.957387	0.445376	6.573015	-43.006165	5.854932
0.966533	0.453264	6.641463	-43.903585	6.020666
0.975678	0.461228	6.709816	-44.808895	6.189515
0.984824	0.469271	6.778075	-45.722085	6.361503
0.993970	0.477390	6.846243	-46.643145	6.536657
1.003116	0.485586	6.914323	-47.572064	6.715002
1.012261	0.493859	6.982315	-48.508831	6.896563
1.021407	0.502209	7.050223	-49.453435	7.081366
1.030553	0.510634	7.118048	-50.405863	7.269436
1.039698	0.519135	7.185792	-51.366105	7.460799
1.048844	0.527712	7.253456	-52.334147	7.655479
1.057990	0.536365	7.321043	-53.309978	7.853502
1.067136	0.545093	7.388553	-54.293585	8.054892
1.076281	0.553895	7.455988	-55.284955	8.259676
1.085427	0.562773	7.523350	-56.284074	8.467877
1.094573	0.571725	7.590639	-57.290930	8.679521
1.103719	0.580752	7.657858	-58.305509	8.894633
1.112864	0.589853	7.725006	-59.327797	9.113238
1.122010	0.599028	7.792087	-60.357780	9.335359
1.131156	0.608277	7.859100	-61.395444	9.561022
1.140302	0.617600	7.926046	-62.440775	9.790252
1.149447	0.626996	7.992927	-63.493758	10.023072
1.158593	0.636466	8.059744	-64.554378	10.259508
1.167739	0.646009	8.126497	-65.622621	10.499583
1.176884	0.655625	8.193187	-66.698472	10.743321
1.186030	0.665314	8.259816	-67.781915	10.990748
1.195176	0.675076	8.326384	-68.872935	11.241886
1.204322	0.684911	8.392891	-69.971517	11.496761
1.213467	0.694818	8.459339	-71.077645	11.755395
1.222613	0.704797	8.525728	-72.191302	12.017813
1.231759	0.714848	8.592059	-73.312474	12.284038
1.240905	0.724972	8.658333	-74.441144	12.554094
1.250050	0.735167	8.724550	-75.577296	12.828005
1.259196	0.745434	8.790710	-76.720913	13.105794
1.268342	0.755773	8.856815	-77.871979	13.387485
1.277487	0.766183	8.922865	-79.030477	13.673100
1.286633	0.776665	8.988860	-80.196390	13.962663
1.295779	0.787218	9.054801	-81.369703	14.256196
1.304925	0.797841	9.120688	-82.550397	14.553724
1.314070	0.808536	9.186522	-83.738455	14.855269
1.323216	0.819302	9.252303	-84.933860	15.160854
1.332362	0.830138	9.318032	-86.136596	15.470501
1.341508	0.841044	9.383709	-87.346643	15.784233
1.350653	0.852021	9.449335	-88.563985	16.102072
1.359799	0.863069	9.514909	-89.788604	16.424042
1.368945	0.874186	9.580432	-91.020483	16.750164
1.378090	0.885374	9.645905	-92.259602	17.080460
1.387236	0.896631	9.711328	-93.505944	17.414954
1.396382	0.907958	9.776701	-94.759492	17.753666
1.405528	0.919355	9.842024	-96.020226	18.096618
1.414673	0.930821	9.907298	-97.288128	18.443834
1.423819	0.942356	9.972523	-98.563180	18.795333
1.432965	0.953961	10.037699	-99.845363	19.151139
1.442111	0.965634	10.102827	-101.134659	19.511272
1.451256	0.977377	10.167906	-102.431049	19.875753
1.460402	0.989188	10.232937	-103.734514	20.244605
1.469548	1.001069	10.297921	-105.045034	20.617849
1.478693	1.013017	10.362857	-106.362592	20.995505
1.487839	1.025034	10.427745	-107.687167	21.377594
1.496985	1.037120	10.492586	-109.018741	21.764138
1.506131	1.049273	10.557380	-110.357294	22.155157
1.515276	1.061495	10.622127	-111.702807	22.550673
1.524422	1.073785	10.686827	-113.055260	22.950704
1.533568	1.086142	10.751481	-114.414634	23.355273
1.542714	1.098567	10.816088	-115.780909	23.764400
1.551859	1.111060	10.880649	-117.154065	24.178104
1.561005	1.123620	10.945163	-118.534082	24.596406
1.570151	1.136247	11.009632	-119.920941	25.019325
1.579296	1.148942	11.074055	-121.314621	25.446883
1.588442	1.161703	11.138432	-122.715103	25.879099
1.597588	1.174531	11.202763	-124.122366	26.315992
1.606734	1.187426	11.267048	-125.536390	26.757582
1.615879	1.200388	11.331288	-126.957154	27.203889
1.625025	1.213416	11.395482	-128.384639	27.654932
1.634171	1.226511	11.459631	-129.818823	28.110730
1.643317	1.239672	11.523735	-131.259687	28.571303
1.652462	1.252899	11.587794	-132.707209	29.036669
1.661608	1.266192	11.651807	-134.161370	29.506848
1.670754	1.279551	11.715776	-135.622147	29.981858
1.679899	1.292975	11.779699	-137.089521	30.461719
1.689045	1.306465	11.843577	-138.563470	30.946448
1.698191	1.320021	11.907411	-140.043973	31.436065
1.707337	1.333642	11.971199	-141.531010	31.930587
1.716482	1.347328	12.034943	-143.024559	32.430033
1.725628	1.361079	12.098642	-144.524599	32.934422
1.734774	1.374895	12.162296	-146.031109	33.443771
1.743920	1.388776	12.225906	-147.544067	33.958098
1.753065	1.402722	12.289470	-149.063453	34.477421
1.762211	1.416732	12.352991	-150.589244	35.001758
1.771357	1.430807	12.416466	-152.121420	35.531127
1.780503	1.444946	12.479897	-153.659958	36.065544
1.789648	1.459149	12.543283	-155.204838	36.605028
1.798794	1.473416	12.606625	-156.756037	37.149596
1.807940	1.487746	12.669922	-158.313533	37.699264
1.817085	1.502141	12.733175	-159.877306	38.254050
1.826231	1.516599	12.796383	-161.447332	38.813971
1.835377	1.531121	12.859546	-163.023591	39.379043
1.844523	1.545706	12.922665	-164.606060	39.949284
1.853668	1.560354	12.985739	-166.194717	40.524710
1.862814	1.575066	13.048769	-167.789540	41.105337
1.871960	1.589840	13.111754	-169.390507	41.691182
1.881106	1.604677	13.174695	-170.997596	42.282260
1.890251	1.619577	13.237591	-172.610784	42.878589
1.899397	1.634539	13.300442	-174.230050	43.480184
1.908543	1.649564	13.363249	-175.855371	44.087060
1.917688	1.664651	13.426012	-177.486725	44.699235
1.926834	1.679800	13.488729	-179.124089	45.316723
1.935980	1.695011	13.551402	-180.767441	45.939540
1.945126	1.710283	13.614031	-182.416758	46.567701
1.954271	1.725618	13.676614	-184.072017	47.201222
1.963417	1.741014	13.739153	-185.733197	47.840118
1.972563	1.756472	13.801647	-187.400275	48.484404
1.981709	1.771990	13.864097	-189.073227	49.134095
1.990854	1.787570	13.926501	-190.752031	49.789206
2.000000	1.803212	13.988861	-192.436665	50.449751
