Peña-Rodríguez & Rioux calculated dielectric data (65Au/35Ag) prepared by Alexander Al-Feghali al-fegha.li, Blum and Cosa Lab, McGill University
1 2 3 0 0 = columns for wave, Re(n), Im(n), eps1, eps2
wave(um)   Re(n)     Im(n)     eps1      eps2
0.180000	1.023288	1.027264	-0.008153	2.102375
0.189146	1.039709	1.112320	-0.156261	2.312979
0.198291	1.060827	1.193139	-0.298228	2.531429
0.207437	1.085873	1.269514	-0.432547	2.757062
0.216583	1.114241	1.341307	-0.557570	2.989077
0.225729	1.145457	1.408385	-0.671475	3.226490
0.234874	1.179147	1.470583	-0.772226	3.468068
0.244020	1.215006	1.527667	-0.857528	3.712250
0.253166	1.252768	1.579304	-0.924774	3.957003
0.262312	1.292175	1.625022	-0.970982	4.199625
0.271457	1.332926	1.664166	-0.992758	4.436421
0.280603	1.374605	1.695829	-0.986296	4.662190
0.289749	1.416536	1.718764	-0.947577	4.869382
0.298894	1.457508	1.731295	-0.873052	5.046754
0.308040	1.495232	1.731305	-0.761699	5.177405
0.317186	1.525327	1.716678	-0.620362	5.236991
0.326332	1.540059	1.687247	-0.475021	5.196917
0.335477	1.529397	1.649581	-0.382062	5.045727
0.344623	1.489949	1.619985	-0.404405	4.827391
0.353769	1.434101	1.612893	-0.544780	4.626102
0.362915	1.379159	1.627057	-0.745234	4.487940
0.372060	1.333301	1.651885	-0.951033	4.404920
0.381206	1.296233	1.677539	-1.133917	4.348960
0.390352	1.263701	1.697360	-1.284089	4.289912
0.399497	1.229212	1.707383	-1.404194	4.197469
0.408643	1.183902	1.706964	-1.512101	4.041755
0.417789	1.117789	1.701718	-1.646392	3.804323
0.426935	1.025937	1.704992	-1.854450	3.498428
0.436080	0.914348	1.731016	-2.160384	3.165500
0.445226	0.795963	1.786308	-2.557337	2.843670
0.454372	0.683135	1.869155	-3.027067	2.553768
0.463518	0.584145	1.973223	-3.552384	2.305297
0.472663	0.502858	2.090756	-4.118396	2.102705
0.481809	0.439569	2.214572	-4.711108	1.946914
0.490955	0.392172	2.339160	-5.317871	1.834705
0.500101	0.357438	2.461126	-5.929382	1.759399
0.509246	0.332162	2.578934	-6.540569	1.713245
0.518392	0.313759	2.692224	-7.149626	1.689419
0.527538	0.300349	2.801209	-7.756560	1.682681
0.536683	0.290616	2.906307	-8.362166	1.689239
0.545829	0.283645	3.007979	-8.967483	1.706396
0.554975	0.278793	3.106651	-9.573557	1.732225
0.564121	0.275601	3.202702	-10.181342	1.765334
0.573266	0.273734	3.296453	-10.791673	1.804704
0.582412	0.272945	3.388181	-11.405273	1.849575
0.591558	0.273046	3.478119	-12.022759	1.899375
0.600704	0.273894	3.566466	-12.644659	1.953666
0.609849	0.275376	3.653389	-13.271422	2.012110
0.618995	0.277404	3.739035	-13.903433	2.074445
0.628141	0.279907	3.823529	-14.541024	2.140465
0.637286	0.282828	3.906977	-15.184481	2.210007
0.646432	0.286121	3.989475	-15.834049	2.282944
0.655578	0.289746	4.071105	-16.489944	2.359174
0.664724	0.293672	4.151939	-17.152350	2.438619
0.673869	0.297872	4.232040	-17.821432	2.521215
0.683015	0.302323	4.311465	-18.497331	2.606914
0.692161	0.307007	4.390265	-19.180171	2.695680
0.701307	0.311905	4.468484	-19.870063	2.787485
0.710452	0.317005	4.546163	-20.567103	2.882310
0.719598	0.322293	4.623337	-21.271376	2.980141
0.728744	0.327760	4.700041	-21.982957	3.080971
0.737889	0.333396	4.776302	-22.701913	3.184798
0.747035	0.339192	4.852149	-23.428301	3.291622
0.756181	0.345142	4.927606	-24.162173	3.401449
0.765327	0.351239	5.002694	-24.903575	3.514284
0.774472	0.357478	5.077434	-25.652547	3.630139
0.783618	0.363853	5.151846	-26.409124	3.749024
0.792764	0.370359	5.225945	-27.173336	3.870954
0.801910	0.376994	5.299749	-27.945211	3.995945
0.811055	0.383753	5.373271	-28.724772	4.124012
0.820201	0.390632	5.446525	-29.512039	4.255175
0.829347	0.397630	5.519523	-30.307030	4.389451
0.838492	0.404742	5.592278	-31.109759	4.526861
0.847638	0.411967	5.664800	-31.920238	4.667426
0.856784	0.419303	5.737098	-32.738478	4.811167
0.865930	0.426747	5.809182	-33.564486	4.958107
0.875075	0.434298	5.881062	-34.398270	5.108267
0.884221	0.441954	5.952744	-35.239833	5.261672
0.893367	0.449712	6.024236	-36.089178	5.418344
0.902513	0.457572	6.095546	-36.946308	5.578308
0.911658	0.465533	6.166680	-37.811222	5.741587
0.920804	0.473593	6.237645	-38.683919	5.908207
0.929950	0.481750	6.308445	-39.564399	6.078192
0.939095	0.490005	6.379088	-40.452657	6.251567
0.948241	0.498355	6.449577	-41.348689	6.428357
0.957387	0.506800	6.519918	-42.252490	6.608588
0.966533	0.515339	6.590116	-43.164055	6.792285
0.975678	0.523971	6.660174	-44.083377	6.979474
0.984824	0.532695	6.730098	-45.010449	7.170180
0.993970	0.541511	6.799889	-45.945262	7.364429
1.003116	0.550418	6.869554	-46.887807	7.562247
1.012261	0.559414	6.939094	-47.838076	7.763659
1.021407	0.568501	7.008513	-48.796058	7.968692
1.030553	0.577676	7.077814	-49.761742	8.177372
1.039698	0.586940	7.147001	-50.735118	8.389724
1.048844	0.596292	7.216075	-51.716174	8.605774
1.057990	0.605731	7.285040	-52.704898	8.825549
1.067136	0.615257	7.353898	-53.701278	9.049073
1.076281	0.624869	7.422652	-54.705300	9.276374
1.085427	0.634568	7.491303	-55.716951	9.507477
1.094573	0.644351	7.559855	-56.736217	9.742407
1.103719	0.654220	7.628308	-57.763085	9.981191
1.112864	0.664174	7.696666	-58.797539	10.223853
1.122010	0.674212	7.764929	-59.839565	10.470421
1.131156	0.684334	7.833100	-60.889149	10.720919
1.140302	0.694540	7.901181	-61.946273	10.975373
1.149447	0.704829	7.969172	-63.010923	11.233808
1.158593	0.715201	8.037076	-64.083083	11.496251
1.167739	0.725656	8.104894	-65.162735	11.762725
1.176884	0.736193	8.172628	-66.249865	12.033256
1.186030	0.746812	8.240278	-67.344454	12.307871
1.195176	0.757512	8.307846	-68.446485	12.586592
1.204322	0.768295	8.375334	-69.555942	12.869447
1.213467	0.779158	8.442742	-70.672806	13.156459
1.222613	0.790102	8.510072	-71.797060	13.447653
1.231759	0.801127	8.577324	-72.928686	13.743054
1.240905	0.812232	8.644500	-74.067665	14.042687
1.250050	0.823418	8.711601	-75.213979	14.346576
1.259196	0.834683	8.778628	-76.367609	14.654746
1.268342	0.846028	8.845581	-77.528537	14.967220
1.277487	0.857452	8.912461	-78.696743	15.284024
1.286633	0.868956	8.979270	-79.872208	15.605181
1.295779	0.880538	9.046008	-81.054912	15.930715
1.304925	0.892200	9.112676	-82.244837	16.260650
1.314070	0.903939	9.179274	-83.441962	16.595010
1.323216	0.915757	9.245803	-84.646267	16.933818
1.332362	0.927653	9.312265	-85.857732	17.277098
1.341508	0.939627	9.378659	-87.076337	17.624874
1.350653	0.951678	9.444986	-88.302062	17.977169
1.359799	0.963807	9.511246	-89.534885	18.334006
1.368945	0.976013	9.577442	-90.774787	18.695407
1.378090	0.988296	9.643572	-92.021746	19.061397
1.387236	1.000655	9.709637	-93.275741	19.431998
1.396382	1.013091	9.775638	-94.536752	19.807232
1.405528	1.025604	9.841576	-95.804756	20.187122
1.414673	1.038193	9.907451	-97.079733	20.571691
1.423819	1.050858	9.973262	-98.361660	20.960961
1.432965	1.063598	10.039012	-99.650517	21.354954
1.442111	1.076415	10.104699	-100.946281	21.753692
1.451256	1.089306	10.170325	-102.248930	22.157198
1.460402	1.102273	10.235890	-103.558443	22.565493
1.469548	1.115315	10.301394	-104.874797	22.978598
1.478693	1.128432	10.366838	-106.197970	23.396536
1.487839	1.141623	10.432221	-107.527940	23.819327
1.496985	1.154889	10.497545	-108.864684	24.246994
1.506131	1.168229	10.562809	-110.208179	24.679557
1.515276	1.181643	10.628014	-111.558403	25.117037
1.524422	1.195131	10.693160	-112.915333	25.559456
1.533568	1.208693	10.758247	-114.278945	26.006834
1.542714	1.222328	10.823276	-115.649218	26.459191
1.551859	1.236037	10.888247	-117.026128	26.916549
1.561005	1.249819	10.953159	-118.409651	27.378927
1.570151	1.263674	11.018014	-119.799764	27.846346
1.579296	1.277601	11.082811	-121.196444	28.318826
1.588442	1.291601	11.147551	-122.599668	28.796387
1.597588	1.305674	11.212234	-124.009411	29.279049
1.606734	1.319819	11.276860	-125.425651	29.766832
1.615879	1.334036	11.341429	-126.848362	30.259754
1.625025	1.348325	11.405942	-128.277523	30.757836
1.634171	1.362686	11.470398	-129.713107	31.261097
1.643317	1.377118	11.534797	-131.155093	31.769556
1.652462	1.391622	11.599141	-132.603454	32.283232
1.661608	1.406196	11.663428	-134.058168	32.802144
1.670754	1.420842	11.727660	-135.519210	33.326310
1.679899	1.435559	11.791835	-136.986555	33.855749
1.689045	1.450346	11.855956	-138.460179	34.390481
1.698191	1.465204	11.920020	-139.940058	34.930522
1.707337	1.480132	11.984029	-141.426168	35.475891
1.716482	1.495130	12.047983	-142.918482	36.026607
1.725628	1.510198	12.111882	-144.416978	36.582687
1.734774	1.525336	12.175725	-145.921630	37.144149
1.743920	1.540544	12.239513	-147.432412	37.711010
1.753065	1.555821	12.303247	-148.949302	38.283288
1.762211	1.571167	12.366925	-150.472272	38.861000
1.771357	1.586582	12.430549	-152.001299	39.444164
1.780503	1.602066	12.494117	-153.536357	40.032797
1.789648	1.617619	12.557632	-155.077421	40.626914
1.798794	1.633240	12.621091	-156.624466	41.226535
1.807940	1.648929	12.684496	-158.177466	41.831674
1.817085	1.664687	12.747846	-159.736397	42.442348
1.826231	1.680513	12.811142	-161.301233	43.058574
1.835377	1.696406	12.874383	-162.871948	43.680367
1.844523	1.712367	12.937570	-164.448517	44.307745
1.853668	1.728396	13.000703	-166.030915	44.940722
1.862814	1.744492	13.063781	-167.619115	45.579315
1.871960	1.760655	13.126805	-169.213093	46.223540
1.881106	1.776885	13.189774	-170.812822	46.873410
1.890251	1.793181	13.252689	-172.418277	47.528943
1.899397	1.809544	13.315550	-174.029432	48.190153
1.908543	1.825974	13.378357	-175.646261	48.857055
1.917688	1.842469	13.441110	-177.268738	49.529665
1.926834	1.859031	13.503808	-178.896838	50.207996
1.935980	1.875659	13.566452	-180.530534	50.892064
1.945126	1.892352	13.629042	-182.169801	51.581882
1.954271	1.909110	13.691578	-183.814612	52.277466
1.963417	1.925934	13.754060	-185.464941	52.978830
1.972563	1.942823	13.816487	-187.120763	53.685987
1.981709	1.959777	13.878861	-188.782051	54.398951
1.990854	1.976796	13.941180	-190.448778	55.117737
2.000000	1.993879	14.003445	-192.120919	55.842357
