Peña-Rodríguez & Rioux calculated dielectric data (0Au/100Ag) prepared by Alexander Al-Feghali al-fegha.li, Blum and Cosa Lab, McGill University
1 2 3 0 0 = columns for wave, Re(n), Im(n), eps1, eps2
wave(um)   Re(n)     Im(n)     eps1      eps2
0.180000	0.955391	0.990464	-0.068247	1.892560
0.189146	0.982180	1.059888	-0.158684	2.082002
0.198291	1.014021	1.123031	-0.232962	2.277555
0.207437	1.050630	1.179085	-0.286420	2.477564
0.216583	1.091920	1.226845	-0.312858	2.679233
0.225729	1.137894	1.264326	-0.303718	2.877337
0.234874	1.188218	1.287989	-0.247055	3.060824
0.244020	1.240221	1.291187	-0.129018	3.202715
0.253166	1.279688	1.265256	0.036729	3.238264
0.262312	1.278240	1.233334	0.112785	3.152992
0.271457	1.273529	1.234564	0.097730	3.144506
0.280603	1.303407	1.234452	0.174996	3.217986
0.289749	1.373615	1.192237	0.465389	3.275349
0.298894	1.461924	0.987053	1.162947	2.885994
0.308040	1.270389	0.721360	1.093528	1.832816
0.317186	0.975004	0.575682	0.619224	1.122585
0.326332	0.532544	0.556449	-0.026033	0.592667
0.335477	0.192865	0.910030	-0.790957	0.351026
0.344623	0.124022	1.198035	-1.419906	0.297166
0.353769	0.099154	1.404936	-1.964015	0.278611
0.362915	0.086715	1.572791	-2.466154	0.272768
0.372060	0.079606	1.718011	-2.945224	0.273529
0.381206	0.075311	1.848501	-3.411286	0.278425
0.390352	0.072698	1.968667	-3.870365	0.286235
0.399497	0.071180	2.081208	-4.326359	0.296281
0.408643	0.070423	2.187897	-4.781936	0.308156
0.417789	0.070220	2.289962	-5.238995	0.321600
0.426935	0.070436	2.388284	-5.698939	0.336442
0.436080	0.070981	2.483519	-6.162827	0.352566
0.445226	0.071791	2.576166	-6.631477	0.369892
0.454372	0.072820	2.666615	-7.105535	0.388366
0.463518	0.074033	2.755176	-7.585516	0.407948
0.472663	0.075404	2.842098	-8.071838	0.428614
0.481809	0.076914	2.927586	-8.564843	0.450345
0.490955	0.078546	3.011808	-9.064815	0.473133
0.500101	0.080289	3.094905	-9.571992	0.496972
0.509246	0.082131	3.176998	-10.086573	0.521860
0.518392	0.084065	3.258189	-10.608727	0.547802
0.527538	0.086085	3.338564	-11.138600	0.574799
0.536683	0.088184	3.418200	-11.676317	0.602861
0.545829	0.090358	3.497163	-12.221984	0.631993
0.554975	0.092603	3.575510	-12.775695	0.662207
0.564121	0.094916	3.653292	-13.337532	0.693512
0.573266	0.097294	3.730554	-13.907565	0.725919
0.582412	0.099734	3.807336	-14.485858	0.759441
0.591558	0.102234	3.883673	-15.072466	0.794090
0.600704	0.104793	3.959598	-15.667436	0.829880
0.609849	0.107409	4.035139	-16.270814	0.866824
0.618995	0.110081	4.110323	-16.882635	0.904936
0.628141	0.112807	4.185172	-17.502936	0.944231
0.637286	0.115586	4.259707	-18.131746	0.984722
0.646432	0.118417	4.333949	-18.769093	1.026425
0.655578	0.121299	4.407915	-19.415000	1.069356
0.664724	0.124233	4.481621	-20.069489	1.113528
0.673869	0.127216	4.555081	-20.732581	1.158957
0.683015	0.130248	4.628310	-21.404291	1.205660
0.692161	0.133330	4.701320	-22.084636	1.253650
0.701307	0.136459	4.774123	-22.773630	1.302945
0.710452	0.139636	4.846729	-23.471285	1.353560
0.719598	0.142861	4.919148	-24.177612	1.405510
0.728744	0.146133	4.991390	-24.892622	1.458813
0.737889	0.149451	5.063463	-25.616322	1.513482
0.747035	0.152816	5.135375	-26.348722	1.569536
0.756181	0.156227	5.207133	-27.089828	1.626989
0.765327	0.159684	5.278745	-27.839645	1.685858
0.774472	0.163186	5.350216	-28.598181	1.746159
0.783618	0.166733	5.421553	-29.365439	1.807908
0.792764	0.170326	5.492762	-30.141423	1.871122
0.801910	0.173964	5.563848	-30.926137	1.935816
0.811055	0.177646	5.634815	-31.719585	2.002007
0.820201	0.181373	5.705669	-32.521767	2.069711
0.829347	0.185145	5.776415	-33.332688	2.138945
0.838492	0.188960	5.847055	-34.152347	2.209724
0.847638	0.192820	5.917595	-34.980747	2.282065
0.856784	0.196724	5.988037	-35.817888	2.355985
0.865930	0.200672	6.058386	-36.663771	2.431499
0.875075	0.204664	6.128645	-37.518397	2.508624
0.884221	0.208699	6.198816	-38.381763	2.587377
0.893367	0.212778	6.268903	-39.253872	2.667773
0.902513	0.216901	6.338909	-40.134721	2.749828
0.911658	0.221067	6.408836	-41.024311	2.833560
0.920804	0.225276	6.478687	-41.922639	2.918985
0.929950	0.229528	6.548465	-42.829705	3.006118
0.939095	0.233824	6.618171	-43.745507	3.094977
0.948241	0.238163	6.687807	-44.670044	3.185577
0.957387	0.242545	6.757377	-45.603312	3.277934
0.966533	0.246970	6.826881	-46.545311	3.372066
0.975678	0.251437	6.896322	-47.496039	3.467988
0.984824	0.255948	6.965702	-48.455492	3.565716
0.993970	0.260502	7.035022	-49.423668	3.665268
1.003116	0.265098	7.104283	-50.400564	3.766658
1.012261	0.269737	7.173488	-51.386178	3.869904
1.021407	0.274418	7.242638	-52.380507	3.975022
1.030553	0.279142	7.311735	-53.383547	4.082027
1.039698	0.283909	7.380779	-54.395295	4.190937
1.048844	0.288718	7.449772	-55.415749	4.301767
1.057990	0.293570	7.518716	-56.444904	4.414533
1.067136	0.298464	7.587611	-57.482757	4.529252
1.076281	0.303400	7.656458	-58.529304	4.645940
1.085427	0.308379	7.725260	-59.584541	4.764613
1.094573	0.313400	7.794016	-60.648466	4.885287
1.103719	0.318463	7.862728	-61.721073	5.007978
1.112864	0.323569	7.931397	-62.802359	5.132703
1.122010	0.328716	8.000023	-63.892319	5.259477
1.131156	0.333906	8.068609	-64.990950	5.388317
1.140302	0.339138	8.137153	-66.098247	5.519239
1.149447	0.344412	8.205658	-67.214206	5.652259
1.158593	0.349728	8.274124	-68.338822	5.787392
1.167739	0.355087	8.342552	-69.472091	5.924656
1.176884	0.360487	8.410943	-70.614008	6.064065
1.186030	0.365929	8.479297	-71.764568	6.205636
1.195176	0.371413	8.547615	-72.923768	6.349386
1.204322	0.376939	8.615897	-74.091601	6.495329
1.213467	0.382506	8.684145	-75.268064	6.643482
1.222613	0.388116	8.752359	-76.453150	6.793861
1.231759	0.393767	8.820539	-77.646856	6.946482
1.240905	0.399461	8.888686	-78.849176	7.101361
1.250050	0.405196	8.956801	-80.060105	7.258513
1.259196	0.410972	9.024884	-81.279638	7.417954
1.268342	0.416791	9.092936	-82.507770	7.579702
1.277487	0.422651	9.160957	-83.744494	7.743770
1.286633	0.428552	9.228947	-84.989807	7.910175
1.295779	0.434496	9.296907	-86.243702	8.078934
1.304925	0.440481	9.364838	-87.506174	8.250061
1.314070	0.446507	9.432740	-88.777218	8.423572
1.323216	0.452575	9.500613	-90.056828	8.599484
1.332362	0.458685	9.568458	-91.344997	8.777812
1.341508	0.464836	9.636275	-92.641722	8.958571
1.350653	0.471028	9.704064	-93.946995	9.141778
1.359799	0.477262	9.771826	-95.260812	9.327448
1.368945	0.483538	9.839562	-96.583166	9.515596
1.378090	0.489854	9.907270	-97.914051	9.706240
1.387236	0.496213	9.974953	-99.253461	9.899393
1.396382	0.502612	10.042610	-100.601391	10.095072
1.405528	0.509053	10.110241	-101.957834	10.293292
1.414673	0.515535	10.177847	-103.322785	10.494070
1.423819	0.522058	10.245427	-104.696237	10.697419
1.432965	0.528623	10.312983	-106.078184	10.903357
1.442111	0.535229	10.380515	-107.468619	11.111898
1.451256	0.541876	10.448022	-108.867537	11.323058
1.460402	0.548564	10.515505	-110.274932	11.536853
1.469548	0.555293	10.582965	-111.690796	11.753297
1.478693	0.562064	10.650401	-113.115123	11.972407
1.487839	0.568875	10.717814	-114.547908	12.194198
1.496985	0.575728	10.785203	-115.989143	12.418685
1.506131	0.582622	10.852570	-117.438822	12.645884
1.515276	0.589556	10.919914	-118.896939	12.875809
1.524422	0.596532	10.987235	-120.363486	13.108477
1.533568	0.603549	11.054534	-121.838457	13.343903
1.542714	0.610607	11.121811	-123.321846	13.582101
1.551859	0.617705	11.189066	-124.813645	13.823088
1.561005	0.624845	11.256300	-126.313848	14.066878
1.570151	0.632025	11.323511	-127.822448	14.313487
1.579296	0.639246	11.390701	-129.339439	14.562930
1.588442	0.646509	11.457870	-130.864812	14.815221
1.597588	0.653811	11.525018	-132.398562	15.070377
1.606734	0.661155	11.592144	-133.940681	15.328413
1.615879	0.668540	11.659250	-135.491162	15.589343
1.625025	0.675965	11.726335	-137.049999	15.853182
1.634171	0.683431	11.793399	-138.617183	16.119947
1.643317	0.690938	11.860443	-140.192708	16.389651
1.652462	0.698485	11.927466	-141.776567	16.662310
1.661608	0.706073	11.994469	-143.368753	16.937939
1.670754	0.713701	12.061452	-144.969258	17.216552
1.679899	0.721371	12.128415	-146.578074	17.498166
1.689045	0.729080	12.195358	-148.195195	17.782794
1.698191	0.736831	12.262281	-149.820614	18.070451
1.707337	0.744622	12.329184	-151.454322	18.361154
1.716482	0.752453	12.396068	-153.096312	18.654915
1.725628	0.760325	12.462932	-154.746577	18.951752
1.734774	0.768237	12.529776	-156.405109	19.251677
1.743920	0.776190	12.596602	-158.071901	19.554706
1.753065	0.784183	12.663407	-159.746944	19.860854
1.762211	0.792216	12.730194	-161.430232	20.170135
1.771357	0.800290	12.796961	-163.121757	20.482565
1.780503	0.808404	12.863710	-164.821511	20.798157
1.789648	0.816559	12.930439	-166.529486	21.116927
1.798794	0.824754	12.997149	-168.245674	21.438889
1.807940	0.832989	13.063841	-169.970068	21.764059
1.817085	0.841264	13.130513	-171.702660	22.092450
1.826231	0.849579	13.197167	-173.443441	22.424077
1.835377	0.857935	13.263802	-175.192404	22.758954
1.844523	0.866331	13.330419	-176.949541	23.097097
1.853668	0.874766	13.397017	-178.714844	23.438520
1.862814	0.883242	13.463596	-180.488305	23.783237
1.871960	0.891758	13.530157	-182.269915	24.131262
1.881106	0.900314	13.596699	-184.059667	24.482611
1.890251	0.908911	13.663223	-185.857552	24.837297
1.899397	0.917547	13.729729	-187.663563	25.195336
1.908543	0.926223	13.796216	-189.477690	25.556741
1.917688	0.934939	13.862685	-191.299927	25.921526
1.926834	0.943695	13.929136	-193.130264	26.289706
1.935980	0.952491	13.995568	-194.968693	26.661296
1.945126	0.961326	14.061983	-196.815205	27.036309
1.954271	0.970202	14.128379	-198.669794	27.414761
1.963417	0.979117	14.194757	-200.532449	27.796664
1.972563	0.988072	14.261117	-202.403162	28.182033
1.981709	0.997067	14.327459	-204.281926	28.570883
1.990854	1.006102	14.393782	-206.168731	28.963227
2.000000	1.015176	14.460088	-208.063569	29.359080
