Peña-Rodríguez & Rioux calculated dielectric data (34Au/66Ag) prepared by Alexander Al-Feghali al-fegha.li, Blum and Cosa Lab, McGill University
1 2 3 0 0 = columns for wave, Re(n), Im(n), eps1, eps2
wave(um)   Re(n)     Im(n)     eps1      eps2
0.180000	0.951734	0.975035	-0.044897	1.855947
0.189146	0.969628	1.051905	-0.166327	2.039912
0.198291	0.991790	1.124241	-0.280272	2.230022
0.207437	1.017551	1.191803	-0.384986	2.425441
0.216583	1.046393	1.254368	-0.478501	2.625123
0.225729	1.077911	1.311666	-0.558576	2.827719
0.234874	1.111783	1.363335	-0.622621	3.031464
0.244020	1.147727	1.408864	-0.667621	3.233981
0.253166	1.185456	1.447533	-0.690045	3.431975
0.262312	1.224607	1.478323	-0.685775	3.620729
0.271457	1.264596	1.499784	-0.650149	3.793243
0.280603	1.304340	1.509868	-0.578396	3.938763
0.289749	1.341640	1.505751	-0.467287	4.040351
0.298894	1.371870	1.484015	-0.320276	4.071751
0.308040	1.385733	1.442531	-0.160638	3.997926
0.317186	1.368779	1.387044	-0.050337	3.797114
0.326332	1.312848	1.338603	-0.068288	3.514765
0.335477	1.233102	1.318498	-0.217895	3.251685
0.344623	1.152813	1.324501	-0.425325	3.053806
0.353769	1.079517	1.340510	-0.631610	2.894206
0.362915	1.004364	1.355144	-0.827669	2.722114
0.372060	0.913329	1.373664	-1.052783	2.509215
0.381206	0.807962	1.412691	-1.342893	2.282802
0.390352	0.702541	1.477242	-1.688680	2.075646
0.399497	0.606726	1.561777	-2.071031	1.895140
0.408643	0.523870	1.659375	-2.479085	1.738592
0.417789	0.454036	1.764695	-2.907999	1.602472
0.426935	0.396042	1.874208	-3.355807	1.484530
0.436080	0.348512	1.985732	-3.821670	1.384102
0.445226	0.310324	2.097851	-4.304678	1.302027
0.454372	0.280651	2.209397	-4.802668	1.240141
0.463518	0.258664	2.319128	-5.311449	1.199749
0.472663	0.243141	2.425899	-5.825867	1.179672
0.481809	0.232562	2.529096	-6.342241	1.176342
0.490955	0.225540	2.628709	-6.859241	1.185756
0.500101	0.221053	2.725050	-7.377036	1.204760
0.509246	0.218408	2.818522	-7.896365	1.231176
0.518392	0.217142	2.909506	-8.418076	1.263550
0.527538	0.216938	2.998335	-8.942949	1.300903
0.536683	0.217575	3.085287	-9.471658	1.342564
0.545829	0.218896	3.170597	-10.004771	1.388063
0.554975	0.220783	3.254459	-10.542759	1.437061
0.564121	0.223149	3.337036	-11.086017	1.489312
0.573266	0.225925	3.418467	-11.634876	1.544636
0.582412	0.229059	3.498868	-12.189612	1.602897
0.591558	0.232509	3.578341	-12.750462	1.663995
0.600704	0.236241	3.656971	-13.317624	1.727854
0.609849	0.240227	3.734833	-13.891270	1.794419
0.618995	0.244446	3.811994	-14.471545	1.863650
0.628141	0.248877	3.888511	-15.058575	1.935518
0.637286	0.253505	3.964434	-15.652469	2.010004
0.646432	0.258316	4.039808	-16.253321	2.087097
0.655578	0.263301	4.114674	-16.861213	2.166792
0.664724	0.268447	4.189067	-17.476216	2.249087
0.673869	0.273748	4.263019	-18.098391	2.333988
0.683015	0.279196	4.336559	-18.727792	2.421501
0.692161	0.284784	4.409713	-19.364466	2.511636
0.701307	0.290508	4.482505	-20.008453	2.604406
0.710452	0.296361	4.554956	-20.659790	2.699825
0.719598	0.302340	4.627085	-21.318506	2.797910
0.728744	0.308442	4.698911	-21.984629	2.898679
0.737889	0.314661	4.770450	-22.658180	3.002150
0.747035	0.320996	4.841716	-23.339179	3.108344
0.756181	0.327444	4.912724	-24.027642	3.217281
0.765327	0.334001	4.983487	-24.723584	3.328984
0.774472	0.340667	5.054015	-25.427015	3.443474
0.783618	0.347439	5.124320	-26.137944	3.560776
0.792764	0.354315	5.194412	-26.856379	3.680912
0.801910	0.361293	5.264300	-27.582325	3.803906
0.811055	0.368372	5.333993	-28.315785	3.929783
0.820201	0.375550	5.403499	-29.056762	4.058568
0.829347	0.382827	5.472825	-29.805256	4.190286
0.838492	0.390200	5.541978	-30.561267	4.324961
0.847638	0.397670	5.610966	-31.324793	4.462620
0.856784	0.405234	5.679793	-32.095832	4.603288
0.865930	0.412892	5.748466	-32.874380	4.746990
0.875075	0.420643	5.816990	-33.660432	4.893753
0.884221	0.428486	5.885370	-34.453982	5.043603
0.893367	0.436421	5.953611	-35.255025	5.196566
0.902513	0.444447	6.021718	-36.063553	5.352667
0.911658	0.452562	6.089694	-36.879559	5.511934
0.920804	0.460768	6.157543	-37.703034	5.674392
0.929950	0.469061	6.225270	-38.533970	5.840068
0.939095	0.477444	6.292878	-39.372356	6.008988
0.948241	0.485913	6.360369	-40.218183	6.181177
0.957387	0.494471	6.427748	-41.071440	6.356664
0.966533	0.503114	6.495017	-41.932116	6.535473
0.975678	0.511845	6.562178	-42.800199	6.717631
0.984824	0.520661	6.629236	-43.675677	6.903165
0.993970	0.529562	6.696191	-44.558539	7.092100
1.003116	0.538549	6.763047	-45.448770	7.284462
1.012261	0.547620	6.829806	-46.346359	7.480278
1.021407	0.556776	6.896469	-47.251291	7.679574
1.030553	0.566015	6.963040	-48.163553	7.882375
1.039698	0.575339	7.029520	-49.083130	8.088707
1.048844	0.584745	7.095910	-50.010008	8.298597
1.057990	0.594235	7.162212	-50.944173	8.512070
1.067136	0.603807	7.228429	-51.885608	8.729151
1.076281	0.613462	7.294562	-52.834299	8.949867
1.085427	0.623198	7.360612	-53.790231	9.174243
1.094573	0.633017	7.426580	-54.753386	9.402304
1.103719	0.642917	7.492469	-55.723750	9.634076
1.112864	0.652899	7.558279	-56.701305	9.869583
1.122010	0.662961	7.624012	-57.686036	10.108852
1.131156	0.673105	7.689668	-58.677925	10.351907
1.140302	0.683329	7.755249	-59.676955	10.598773
1.149447	0.693633	7.820757	-60.683109	10.849475
1.158593	0.704018	7.886191	-61.696370	11.104037
1.167739	0.714482	7.951554	-62.716719	11.362486
1.176884	0.725026	8.016845	-63.744140	11.624844
1.186030	0.735650	8.082066	-64.778614	11.891137
1.195176	0.746352	8.147218	-65.820123	12.161388
1.204322	0.757134	8.212302	-66.868648	12.435623
1.213467	0.767994	8.277318	-67.924171	12.713865
1.222613	0.778933	8.342266	-68.986673	12.996138
1.231759	0.789951	8.407149	-70.056135	13.282466
1.240905	0.801046	8.471966	-71.132538	13.572874
1.250050	0.812220	8.536719	-72.215864	13.867384
1.259196	0.823471	8.601407	-73.306092	14.166021
1.268342	0.834800	8.666031	-74.403203	14.468807
1.277487	0.846206	8.730592	-75.507178	14.775766
1.286633	0.857690	8.795091	-76.617996	15.086922
1.295779	0.869250	8.859528	-77.735638	15.402297
1.304925	0.880888	8.923903	-78.860083	15.721914
1.314070	0.892602	8.988217	-79.991312	16.045797
1.323216	0.904392	9.052471	-81.129303	16.373968
1.332362	0.916259	9.116664	-82.274037	16.706449
1.341508	0.928202	9.180798	-83.425493	17.043264
1.350653	0.940220	9.244872	-84.583651	17.384434
1.359799	0.952315	9.308888	-85.748488	17.729981
1.368945	0.964485	9.372845	-86.919985	18.079929
1.378090	0.976730	9.436743	-88.098120	18.434298
1.387236	0.989050	9.500584	-89.282871	18.793111
1.396382	1.001446	9.564367	-90.474219	19.156389
1.405528	1.013916	9.628093	-91.672141	19.524154
1.414673	1.026461	9.691761	-92.876615	19.896428
1.423819	1.039080	9.755373	-94.087620	20.273232
1.432965	1.051774	9.818929	-95.305135	20.654586
1.442111	1.064542	9.882428	-96.529137	21.040513
1.451256	1.077383	9.945871	-97.759604	21.431032
1.460402	1.090299	10.009259	-98.996515	21.826166
1.469548	1.103288	10.072591	-100.239847	22.225934
1.478693	1.116350	10.135868	-101.489577	22.630357
1.487839	1.129486	10.199089	-102.745685	23.039456
1.496985	1.142695	10.262256	-104.008146	23.453250
1.506131	1.155976	10.325368	-105.276939	23.871760
1.515276	1.169331	10.388425	-106.552040	24.295006
1.524422	1.182757	10.451428	-107.833428	24.723008
1.533568	1.196257	10.514376	-109.121079	25.155786
1.542714	1.209828	10.577271	-110.414970	25.593358
1.551859	1.223472	10.640111	-111.715079	26.035746
1.561005	1.237187	10.702897	-113.021382	26.482967
1.570151	1.250974	10.765630	-114.333857	26.935041
1.579296	1.264832	10.828309	-115.652479	27.391987
1.588442	1.278762	10.890935	-116.977226	27.853825
1.597588	1.292763	10.953507	-118.308074	28.320572
1.606734	1.306835	11.016025	-119.645000	28.792248
1.615879	1.320977	11.078491	-120.987980	29.268870
1.625025	1.335191	11.140903	-122.336991	29.750458
1.634171	1.349474	11.203262	-123.692008	30.237030
1.643317	1.363828	11.265569	-125.053009	30.728603
1.652462	1.378252	11.327822	-126.419969	31.225196
1.661608	1.392746	11.390022	-127.792865	31.726826
1.670754	1.407310	11.452170	-129.171672	32.233512
1.679899	1.421944	11.514265	-130.556366	32.745269
1.689045	1.436646	11.576307	-131.946924	33.262117
1.698191	1.451418	11.638296	-133.343321	33.784072
1.707337	1.466259	11.700233	-134.745533	34.311151
1.716482	1.481169	11.762117	-136.153535	34.843371
1.725628	1.496148	11.823949	-137.567304	35.380750
1.734774	1.511195	11.885728	-138.986815	35.923303
1.743920	1.526310	11.947454	-140.412043	36.471047
1.753065	1.541494	12.009128	-141.842964	37.023999
1.762211	1.556746	12.070750	-143.279553	37.582174
1.771357	1.572065	12.132319	-144.721786	38.145590
1.780503	1.587452	12.193836	-146.169638	38.714262
1.789648	1.602907	12.255301	-147.623084	39.288205
1.798794	1.618428	12.316713	-149.082100	39.867435
1.807940	1.634017	12.378072	-150.546660	40.451969
1.817085	1.649673	12.439379	-152.016740	41.041821
1.826231	1.665396	12.500634	-153.492315	41.637006
1.835377	1.681185	12.561837	-154.973360	42.237540
1.844523	1.697040	12.622987	-156.459850	42.843437
1.853668	1.712962	12.684084	-157.951759	43.454713
1.862814	1.728950	12.745130	-159.449063	44.071383
1.871960	1.745004	12.806123	-160.951736	44.693459
1.881106	1.761123	12.867063	-162.459754	45.320958
1.890251	1.777308	12.927951	-163.973091	45.953893
1.899397	1.793558	12.988786	-165.491722	46.592278
1.908543	1.809873	13.049569	-167.015621	47.236128
1.917688	1.826253	13.110300	-168.544763	47.885456
1.926834	1.842698	13.170978	-170.079123	48.540275
1.935980	1.859208	13.231603	-171.618675	49.200600
1.945126	1.875782	13.292176	-173.163394	49.866444
1.954271	1.892420	13.352697	-174.713254	50.537819
1.963417	1.909122	13.413164	-176.268230	51.214740
1.972563	1.925888	13.473579	-177.828296	51.897218
1.981709	1.942718	13.533942	-179.393427	52.585267
1.990854	1.959611	13.594252	-180.963597	53.278900
2.000000	1.976568	13.654508	-182.538781	53.978129
