Peña-Rodríguez & Rioux calculated dielectric data (52Au/48Ag) prepared by Alexander Al-Feghali al-fegha.li, Blum and Cosa Lab, McGill University
1 2 3 0 0 = columns for wave, Re(n), Im(n), eps1, eps2
wave(um)   Re(n)     Im(n)     eps1      eps2
0.180000	0.982186	1.019031	-0.073735	2.001757
0.189146	1.000460	1.100266	-0.209664	2.201544
0.198291	1.023079	1.177072	-0.338810	2.408475
0.207437	1.049338	1.249270	-0.459565	2.621814
0.216583	1.078693	1.316712	-0.570152	2.840654
0.225729	1.110716	1.379228	-0.668580	3.063862
0.234874	1.145072	1.436588	-0.752596	3.289993
0.244020	1.181478	1.488461	-0.819625	3.517167
0.253166	1.219674	1.534376	-0.866706	3.742877
0.262312	1.259375	1.573672	-0.890418	3.963686
0.271457	1.300199	1.605422	-0.886860	4.174737
0.280603	1.341536	1.628333	-0.851750	4.368936
0.289749	1.382280	1.640625	-0.780954	4.535605
0.298894	1.420285	1.639943	-0.672203	4.658374
0.308040	1.451288	1.623641	-0.529975	4.712742
0.317186	1.467248	1.590525	-0.376953	4.667391
0.326332	1.456426	1.546090	-0.269216	4.503532
0.335477	1.412441	1.507874	-0.278695	4.259568
0.344623	1.347440	1.494228	-0.417125	4.026765
0.353769	1.281851	1.505454	-0.623249	3.859534
0.362915	1.225785	1.529398	-0.836509	3.749427
0.372060	1.178607	1.554375	-1.026965	3.663995
0.381206	1.134220	1.572773	-1.187161	3.567740
0.390352	1.082993	1.581468	-1.328168	3.425437
0.399497	1.013066	1.584689	-1.484937	3.210789
0.408643	0.917505	1.596863	-1.708156	2.930260
0.417789	0.803226	1.634552	-2.026588	2.625830
0.426935	0.686080	1.704053	-2.433089	2.338233
0.436080	0.579920	1.801016	-2.907353	2.088892
0.445226	0.492331	1.916317	-3.429881	1.886924
0.454372	0.425130	2.040503	-3.982916	1.734960
0.463518	0.376172	2.166150	-4.550702	1.629692
0.472663	0.341459	2.288821	-5.122106	1.563075
0.481809	0.317012	2.406692	-5.691669	1.525900
0.490955	0.299761	2.519482	-6.257931	1.510484
0.500101	0.287580	2.627559	-6.821365	1.511268
0.509246	0.279049	2.731481	-7.383121	1.524434
0.518392	0.273212	2.831804	-7.944467	1.547368
0.527538	0.269418	2.929022	-8.506581	1.578264
0.536683	0.267210	3.023555	-9.070486	1.615848
0.545829	0.266261	3.115758	-9.637050	1.659207
0.554975	0.266331	3.205922	-10.207005	1.707670
0.564121	0.267241	3.294295	-10.780963	1.760742
0.573266	0.268856	3.381083	-11.359438	1.818047
0.582412	0.271069	3.466460	-11.942864	1.879300
0.591558	0.273799	3.550574	-12.531608	1.944284
0.600704	0.276978	3.633552	-13.125982	2.012829
0.609849	0.280555	3.715503	-13.726253	2.084806
0.618995	0.284486	3.796522	-14.332648	2.160112
0.628141	0.288735	3.876691	-14.945365	2.238671
0.637286	0.293273	3.956082	-15.564572	2.320424
0.646432	0.298075	4.034757	-16.190418	2.405325
0.655578	0.303122	4.112774	-16.823029	2.493341
0.664724	0.308394	4.190182	-17.462517	2.584451
0.673869	0.313877	4.267024	-18.108978	2.678639
0.683015	0.319558	4.343341	-18.762496	2.775896
0.692161	0.325425	4.419168	-19.423145	2.876219
0.701307	0.331470	4.494537	-20.090989	2.979610
0.710452	0.337684	4.569476	-20.766085	3.086075
0.719598	0.344058	4.644013	-21.448481	3.195622
0.728744	0.350587	4.718170	-22.138220	3.308262
0.737889	0.357265	4.791970	-22.835338	3.424009
0.747035	0.364087	4.865432	-23.539867	3.542880
0.756181	0.371048	4.938574	-24.251835	3.664891
0.765327	0.378143	5.011413	-24.971265	3.790062
0.774472	0.385370	5.083964	-25.698176	3.918413
0.783618	0.392725	5.156241	-26.432586	4.049966
0.792764	0.400204	5.228257	-27.174508	4.184743
0.801910	0.407806	5.300024	-27.923953	4.322766
0.811055	0.415528	5.371554	-28.680929	4.464061
0.820201	0.423367	5.442856	-29.445443	4.608651
0.829347	0.431322	5.513940	-30.217499	4.756562
0.838492	0.439390	5.584815	-30.997100	4.907819
0.847638	0.447569	5.655490	-31.784246	5.062449
0.856784	0.455860	5.725971	-32.578937	5.220477
0.865930	0.464258	5.796267	-33.381171	5.381931
0.875075	0.472765	5.866383	-34.190945	5.546836
0.884221	0.481377	5.936327	-35.008253	5.715221
0.893367	0.490094	6.006104	-35.833090	5.887112
0.902513	0.498915	6.075719	-36.665450	6.062537
0.911658	0.507839	6.145179	-37.505324	6.241523
0.920804	0.516865	6.214487	-38.352704	6.424099
0.929950	0.525991	6.283649	-39.207581	6.610291
0.939095	0.535218	6.352669	-40.069944	6.800128
0.948241	0.544544	6.421550	-40.939781	6.993638
0.957387	0.553969	6.490298	-41.817082	7.190848
0.966533	0.563492	6.558914	-42.701834	7.391786
0.975678	0.573111	6.627404	-43.594024	7.596480
0.984824	0.582828	6.695769	-44.493638	7.804958
0.993970	0.592640	6.764014	-45.400662	8.017247
1.003116	0.602547	6.832141	-46.315082	8.233376
1.012261	0.612550	6.900152	-47.236882	8.453373
1.021407	0.622646	6.968051	-48.166046	8.677264
1.030553	0.632837	7.035840	-49.102559	8.905078
1.039698	0.643121	7.103521	-50.046404	9.136842
1.048844	0.653497	7.171096	-50.997564	9.372583
1.057990	0.663966	7.238568	-51.956021	9.612330
1.067136	0.674527	7.305939	-52.921759	9.856108
1.076281	0.685180	7.373210	-53.894758	10.103947
1.085427	0.695923	7.440384	-54.875001	10.355872
1.094573	0.706758	7.507461	-55.862468	10.611910
1.103719	0.717682	7.574444	-56.857141	10.872090
1.112864	0.728697	7.641335	-57.859000	11.136437
1.122010	0.739801	7.708134	-58.868026	11.404978
1.131156	0.750995	7.774844	-59.884199	11.677739
1.140302	0.762278	7.841464	-60.907498	11.954748
1.149447	0.773649	7.907998	-61.937903	12.236030
1.158593	0.785109	7.974446	-62.975393	12.521612
1.167739	0.796656	8.040809	-64.019948	12.811520
1.176884	0.808291	8.107088	-65.071546	13.105780
1.186030	0.820014	8.173285	-66.130165	13.404417
1.195176	0.831824	8.239400	-67.195784	13.707458
1.204322	0.843720	8.305435	-68.268381	14.014928
1.213467	0.855703	8.371389	-69.347934	14.326852
1.222613	0.867773	8.437266	-70.434421	14.643255
1.231759	0.879928	8.503064	-71.527818	14.964163
1.240905	0.892169	8.568785	-72.628104	15.289601
1.250050	0.904495	8.634429	-73.735256	15.619593
1.259196	0.916906	8.699998	-74.849250	15.954165
1.268342	0.929402	8.765492	-75.970064	16.293340
1.277487	0.941983	8.830912	-77.097673	16.637144
1.286633	0.954649	8.896258	-78.232054	16.985600
1.295779	0.967398	8.961531	-79.373184	17.338732
1.304925	0.980231	9.026732	-80.521039	17.696565
1.314070	0.993148	9.091861	-81.675594	18.059122
1.323216	1.006148	9.156919	-82.836825	18.426427
1.332362	1.019231	9.221905	-84.004708	18.798503
1.341508	1.032397	9.286822	-85.179218	19.175374
1.350653	1.045646	9.351669	-86.360331	19.557063
1.359799	1.058977	9.416446	-87.548022	19.943593
1.368945	1.072390	9.481154	-88.742266	20.334986
1.378090	1.085885	9.545794	-89.943037	20.731265
1.387236	1.099461	9.610366	-91.150312	21.132453
1.396382	1.113120	9.674869	-92.364063	21.538572
1.405528	1.126859	9.739306	-93.584267	21.949645
1.414673	1.140679	9.803675	-94.810896	22.365692
1.423819	1.154580	9.867978	-96.043927	22.786737
1.432965	1.168561	9.932214	-97.283332	23.212801
1.442111	1.182623	9.996383	-98.529086	23.643905
1.451256	1.196765	10.060487	-99.781162	24.080071
1.460402	1.210986	10.124526	-101.039536	24.521319
1.469548	1.225287	10.188499	-102.304180	24.967671
1.478693	1.239667	10.252407	-103.575067	25.419148
1.487839	1.254127	10.316250	-104.852173	25.875771
1.496985	1.268665	10.380028	-106.135469	26.337559
1.506131	1.283282	10.443742	-107.424930	26.804533
1.515276	1.297977	10.507391	-108.720528	27.276713
1.524422	1.312751	10.570977	-110.022237	27.754120
1.533568	1.327602	10.634499	-111.330030	28.236773
1.542714	1.342532	10.697956	-112.643880	28.724692
1.551859	1.357538	10.761351	-113.963759	29.217896
1.561005	1.372623	10.824682	-115.289641	29.716404
1.570151	1.387784	10.887949	-116.621498	30.220236
1.579296	1.403022	10.951154	-117.959303	30.729410
1.588442	1.418336	11.014295	-119.303028	31.243946
1.597588	1.433727	11.077374	-120.652645	31.763861
1.606734	1.449194	11.140390	-122.008128	32.289175
1.615879	1.464737	11.203343	-123.369449	32.819906
1.625025	1.480356	11.266234	-124.736579	33.356071
1.634171	1.496050	11.329063	-126.109492	33.897688
1.643317	1.511819	11.391828	-127.488158	34.444776
1.652462	1.527664	11.454532	-128.872551	34.997351
1.661608	1.543583	11.517174	-130.262641	35.555432
1.670754	1.559577	11.579753	-131.658402	36.119035
1.679899	1.575645	11.642271	-133.059804	36.688177
1.689045	1.591788	11.704726	-134.466820	37.262876
1.698191	1.608004	11.767119	-135.879422	37.843147
1.707337	1.624294	11.829451	-137.297580	38.429008
1.716482	1.640657	11.891721	-138.721268	39.020474
1.725628	1.657094	11.953929	-140.150455	39.617562
1.734774	1.673603	12.016075	-141.585114	40.220288
1.743920	1.690186	12.078160	-143.025217	40.828667
1.753065	1.706841	12.140183	-144.470734	41.442716
1.762211	1.723568	12.202144	-145.921637	42.062449
1.771357	1.740367	12.264044	-147.377897	42.687881
1.780503	1.757238	12.325882	-148.839486	43.319029
1.789648	1.774181	12.387659	-150.306374	43.955906
1.798794	1.791196	12.449374	-151.778534	44.598528
1.807940	1.808281	12.511028	-153.255936	45.246909
1.817085	1.825437	12.572620	-154.738550	45.901063
1.826231	1.842665	12.634151	-156.226350	46.561005
1.835377	1.859962	12.695620	-157.719304	47.226748
1.844523	1.877330	12.757028	-159.217385	47.898307
1.853668	1.894768	12.818374	-160.720563	48.575695
1.862814	1.912276	12.879659	-162.228809	49.258925
1.871960	1.929853	12.940882	-163.742095	49.948011
1.881106	1.947500	13.002044	-165.260390	50.642967
1.890251	1.965216	13.063144	-166.783666	51.343804
1.899397	1.983001	13.124183	-168.311894	52.050536
1.908543	2.000854	13.185161	-169.845044	52.763175
1.917688	2.018776	13.246077	-171.383088	53.481735
1.926834	2.036767	13.306931	-172.925995	54.206226
1.935980	2.054825	13.367724	-174.473737	54.936661
1.945126	2.072951	13.428455	-176.026285	55.673053
1.954271	2.091144	13.489125	-177.583608	56.415412
1.963417	2.109405	13.549733	-179.145678	57.163751
1.972563	2.127733	13.610280	-180.712465	57.918080
1.981709	2.146128	13.670765	-182.283941	58.678412
1.990854	2.164589	13.731188	-183.860075	59.444756
2.000000	2.183117	13.791549	-185.440838	60.217124
