Peña-Rodríguez & Rioux calculated dielectric data (100Au/0Ag) prepared by Alexander Al-Feghali al-fegha.li, Blum and Cosa Lab, McGill University
1 2 3 0 0 = columns for wave, Re(n), Im(n), eps1, eps2
wave(um)   Re(n)     Im(n)     eps1      eps2
0.180000	1.056758	1.052137	0.009745	2.223709
0.189146	1.072441	1.141598	-0.153116	2.448593
0.198291	1.093085	1.227079	-0.310887	2.682604
0.207437	1.117887	1.308385	-0.462201	2.925253
0.216583	1.146211	1.385414	-0.605574	3.175953
0.225729	1.177562	1.458094	-0.739386	3.433994
0.234874	1.211558	1.526342	-0.861848	3.698506
0.244020	1.247897	1.590035	-0.970964	3.968400
0.253166	1.286337	1.648983	-1.064481	4.242298
0.262312	1.326672	1.702909	-1.139842	4.518403
0.271457	1.368701	1.751415	-1.194113	4.794328
0.280603	1.412197	1.793943	-1.223931	5.066802
0.289749	1.456841	1.829716	-1.225477	5.331211
0.298894	1.502109	1.857664	-1.194583	5.580827
0.308040	1.547051	1.876328	-1.127237	5.805551
0.317186	1.589840	1.883822	-1.021194	5.989949
0.326332	1.626896	1.878104	-0.880483	6.110960
0.335477	1.651613	1.858445	-0.725991	6.138865
0.344623	1.654507	1.829648	-0.610221	6.054331
0.353769	1.630515	1.806382	-0.604436	5.890664
0.362915	1.589916	1.804303	-0.727678	5.737380
0.372060	1.550459	1.824261	-0.924003	5.656883
0.381206	1.521721	1.856508	-1.130988	5.650174
0.390352	1.504843	1.891737	-1.314114	5.693534
0.399497	1.497795	1.923860	-1.457848	5.763094
0.408643	1.497983	1.948844	-1.554039	5.838668
0.417789	1.502756	1.963337	-1.596417	5.900830
0.426935	1.508915	1.963726	-1.579396	5.926191
0.436080	1.511342	1.945666	-1.501462	5.881136
0.445226	1.500254	1.905132	-1.378764	5.716364
0.454372	1.458871	1.844583	-1.274183	5.382016
0.463518	1.372338	1.782645	-1.294511	4.892782
0.472663	1.245051	1.744691	-1.493795	4.344458
0.481809	1.093895	1.743821	-1.844307	3.815116
0.490955	0.934770	1.782670	-2.304119	3.332773
0.500101	0.781016	1.858898	-2.845515	2.903658
0.509246	0.643465	1.966176	-3.451800	2.530331
0.518392	0.529095	2.095203	-4.109932	2.217125
0.527538	0.440329	2.235717	-4.804541	1.968901
0.536683	0.375307	2.378539	-5.516591	1.785364
0.545829	0.329211	2.517447	-6.229157	1.657544
0.554975	0.296644	2.649729	-6.933068	1.572054
0.564121	0.273316	2.775014	-7.626001	1.516911
0.573266	0.256306	2.893908	-8.309011	1.483454
0.582412	0.243720	3.007263	-8.984230	1.465859
0.591558	0.234321	3.115894	-9.653890	1.460241
0.600704	0.227288	3.220505	-10.319991	1.463962
0.609849	0.222055	3.321678	-10.984236	1.475193
0.618995	0.218227	3.419893	-11.648046	1.492629
0.628141	0.215517	3.515544	-12.312602	1.515320
0.637286	0.213713	3.608956	-12.978889	1.542561
0.646432	0.212655	3.700399	-13.647729	1.573818
0.655578	0.212222	3.790099	-14.319813	1.608682
0.664724	0.212317	3.878248	-14.995727	1.646833
0.673869	0.212865	3.965007	-15.675968	1.688020
0.683015	0.213806	4.050516	-16.360965	1.732046
0.692161	0.215090	4.134894	-17.051083	1.778750
0.701307	0.216678	4.218245	-17.746642	1.828005
0.710452	0.218537	4.300660	-18.447919	1.879708
0.719598	0.220639	4.382218	-19.155154	1.933775
0.728744	0.222960	4.462989	-19.868562	1.990138
0.737889	0.225482	4.543035	-20.588329	2.048742
0.747035	0.228187	4.622412	-21.314620	2.109544
0.756181	0.231060	4.701167	-22.047583	2.172508
0.765327	0.234091	4.779346	-22.787348	2.237606
0.774472	0.237268	4.856988	-23.534032	2.304816
0.783618	0.240582	4.934128	-24.287739	2.374121
0.792764	0.244024	5.010800	-25.048564	2.445510
0.801910	0.247588	5.087032	-25.816590	2.518973
0.811055	0.251267	5.162851	-26.591893	2.594504
0.820201	0.255055	5.238282	-27.374541	2.672103
0.829347	0.258949	5.313347	-28.164597	2.751767
0.838492	0.262942	5.388066	-28.962116	2.833499
0.847638	0.267032	5.462459	-29.767149	2.917303
0.856784	0.271215	5.536542	-30.579742	3.003183
0.865930	0.275487	5.610332	-31.399936	3.091147
0.875075	0.279846	5.683844	-32.227769	3.181201
0.884221	0.284289	5.757091	-33.063276	3.273355
0.893367	0.288814	5.830086	-33.906488	3.367619
0.902513	0.293418	5.902841	-34.757433	3.464003
0.911658	0.298100	5.975366	-35.616137	3.562519
0.920804	0.302858	6.047673	-36.482624	3.663178
0.929950	0.307691	6.119770	-37.356915	3.765993
0.939095	0.312596	6.191667	-38.239028	3.870978
0.948241	0.317572	6.263372	-39.128982	3.978146
0.957387	0.322619	6.334893	-40.026793	4.087511
0.966533	0.327734	6.406238	-40.932474	4.199087
0.975678	0.332918	6.477412	-41.846038	4.312890
0.984824	0.338168	6.548424	-42.767497	4.428933
0.993970	0.343484	6.619278	-43.696862	4.547234
1.003116	0.348865	6.689981	-44.634141	4.667807
1.012261	0.354311	6.760538	-45.579343	4.790667
1.021407	0.359820	6.830955	-46.532475	4.915832
1.030553	0.365392	6.901236	-47.493543	5.043318
1.039698	0.371027	6.971385	-48.462553	5.173140
1.048844	0.376723	7.041408	-49.439509	5.305315
1.057990	0.382480	7.111308	-50.424415	5.439861
1.067136	0.388297	7.181090	-51.417274	5.576793
1.076281	0.394175	7.250756	-52.418090	5.716129
1.085427	0.400112	7.320311	-53.426864	5.857886
1.094573	0.406108	7.389758	-54.443597	6.002081
1.103719	0.412163	7.459100	-55.468291	6.148731
1.112864	0.418276	7.528340	-56.500945	6.297852
1.122010	0.424448	7.597481	-57.541560	6.449464
1.131156	0.430676	7.666526	-58.590136	6.603583
1.140302	0.436962	7.735477	-59.646671	6.760226
1.149447	0.443305	7.804337	-60.711163	6.919411
1.158593	0.449705	7.873109	-61.783612	7.081155
1.167739	0.456161	7.941794	-62.864015	7.245477
1.176884	0.462673	8.010396	-63.952370	7.412393
1.186030	0.469241	8.078915	-65.048674	7.581921
1.195176	0.475865	8.147354	-66.152923	7.754079
1.204322	0.482544	8.215714	-67.265115	7.928884
1.213467	0.489278	8.283999	-68.385246	8.106355
1.222613	0.496067	8.352209	-69.513312	8.286509
1.231759	0.502911	8.420346	-70.649309	8.469363
1.240905	0.509809	8.488412	-71.793232	8.654935
1.250050	0.516761	8.556408	-72.945076	8.843243
1.259196	0.523768	8.624336	-74.104838	9.034305
1.268342	0.530829	8.692197	-75.272512	9.228138
1.277487	0.537943	8.759993	-76.448091	9.424761
1.286633	0.545112	8.827724	-77.631572	9.624190
1.295779	0.552333	8.895393	-78.822949	9.826443
1.304925	0.559608	8.963000	-80.022214	10.031539
1.314070	0.566937	9.030547	-81.229363	10.239495
1.323216	0.574318	9.098034	-82.444390	10.450328
1.332362	0.581752	9.165464	-83.667287	10.664056
1.341508	0.589239	9.232835	-84.898048	10.880696
1.350653	0.596779	9.300151	-86.136667	11.100267
1.359799	0.604371	9.367412	-87.383136	11.322786
1.368945	0.612016	9.434618	-88.637450	11.548271
1.378090	0.619713	9.501771	-89.899599	11.776739
1.387236	0.627462	9.568871	-91.169578	12.008207
1.396382	0.635263	9.635919	-92.447380	12.242694
1.405528	0.643117	9.702917	-93.732995	12.480216
1.414673	0.651022	9.769864	-95.026417	12.720791
1.423819	0.658979	9.836762	-96.327638	12.964437
1.432965	0.666988	9.903612	-97.636650	13.211171
1.442111	0.675048	9.970413	-98.953446	13.461010
1.451256	0.683160	10.037167	-100.278016	13.713972
1.460402	0.691323	10.103874	-101.610353	13.970074
1.469548	0.699537	10.170536	-102.950448	14.229334
1.478693	0.707803	10.237152	-104.298293	14.491769
1.487839	0.716120	10.303723	-105.653880	14.757395
1.496985	0.724487	10.370250	-107.017199	15.026231
1.506131	0.732906	10.436733	-108.388242	15.298293
1.515276	0.741376	10.503173	-109.767001	15.573599
1.524422	0.749896	10.569570	-111.153465	15.852165
1.533568	0.758468	10.635925	-112.547627	16.134010
1.542714	0.767089	10.702238	-113.949477	16.419149
1.551859	0.775762	10.768510	-115.359006	16.707600
1.561005	0.784485	10.834741	-116.776205	16.999381
1.570151	0.793258	10.900932	-118.201064	17.294507
1.579296	0.802082	10.967083	-119.633574	17.592996
1.588442	0.810956	11.033194	-121.073725	17.894865
1.597588	0.819880	11.099266	-122.521508	18.200131
1.606734	0.828854	11.165299	-123.976913	18.508810
1.615879	0.837879	11.231294	-125.439930	18.820920
1.625025	0.846953	11.297251	-126.910550	19.136477
1.634171	0.856077	11.363170	-128.388762	19.455497
1.643317	0.865251	11.429051	-129.874556	19.777998
1.652462	0.874475	11.494896	-131.367924	20.103997
1.661608	0.883749	11.560703	-132.868853	20.433509
1.670754	0.893072	11.626475	-134.377335	20.766551
1.679899	0.902445	11.692210	-135.893358	21.103141
1.689045	0.911867	11.757909	-137.416913	21.443294
1.698191	0.921339	11.823572	-138.947989	21.787026
1.707337	0.930860	11.889200	-140.486576	22.134355
1.716482	0.940430	11.954793	-142.032663	22.485297
1.725628	0.950050	12.020351	-143.586240	22.839868
1.734774	0.959719	12.085874	-145.147295	23.198084
1.743920	0.969437	12.151363	-146.715819	23.559962
1.753065	0.979204	12.216818	-148.291800	23.925517
1.762211	0.989020	12.282239	-149.875228	24.294767
1.771357	0.998885	12.347626	-151.466091	24.667726
1.780503	1.008799	12.412979	-153.064378	25.044412
1.789648	1.018762	12.478299	-154.670080	25.424841
1.798794	1.028774	12.543586	-156.283184	25.809027
1.807940	1.038834	12.608840	-157.903679	26.196988
1.817085	1.048943	12.674062	-159.531554	26.588740
1.826231	1.059101	12.739250	-161.166799	26.984297
1.835377	1.069307	12.804406	-162.809401	27.383676
1.844523	1.079561	12.869530	-164.459349	27.786894
1.853668	1.089864	12.934622	-166.116632	28.193964
1.862814	1.100216	12.999681	-167.781238	28.604905
1.871960	1.110615	13.064709	-169.453157	29.019730
1.881106	1.121063	13.129705	-171.132375	29.438455
1.890251	1.131559	13.194670	-172.818882	29.861097
1.899397	1.142103	13.259603	-174.512666	30.287671
1.908543	1.152695	13.324505	-176.213715	30.718191
1.917688	1.163336	13.389375	-177.922017	31.152675
1.926834	1.174024	13.454215	-179.637561	31.591137
1.935980	1.184760	13.519023	-181.360334	32.033592
1.945126	1.195544	13.583801	-183.090325	32.480055
1.954271	1.206375	13.648548	-184.827522	32.930543
1.963417	1.217255	13.713264	-186.571912	33.385071
1.972563	1.228182	13.777950	-188.323484	33.843652
1.981709	1.239156	13.842606	-190.082225	34.306304
1.990854	1.250178	13.907231	-191.848124	34.773040
2.000000	1.261248	13.971826	-193.621167	35.243876
