Rioux calculated dielectric data (25Au/75Ag), Alexander Al-Feghali al-fegha.li
1 2 3 0 0 = columns for wave, Re(n), Im(n), eps1, eps2
wave(um) Re(n)  Im(n)    eps1   eps2
0.189700	1.169335	0.936663	0.490007	2.190547
0.193202	1.176412	0.961489	0.459485	2.262214
0.196703	1.184123	0.985630	0.430680	2.334215
0.200205	1.192431	1.009059	0.403690	2.406466
0.203706	1.201300	1.031748	0.378618	2.478877
0.207208	1.210697	1.053670	0.355567	2.551350
0.210710	1.220590	1.074800	0.334643	2.623780
0.214211	1.230948	1.095114	0.315958	2.696056
0.217713	1.241743	1.114585	0.299626	2.768058
0.221214	1.252948	1.133189	0.285762	2.839655
0.224716	1.264538	1.150898	0.274489	2.910708
0.228218	1.276486	1.167684	0.265930	2.981063
0.231719	1.288769	1.183516	0.260214	3.050558
0.235221	1.301364	1.198364	0.257472	3.119014
0.238722	1.314247	1.212191	0.257839	3.186238
0.242224	1.327397	1.224961	0.261453	3.252017
0.245726	1.340788	1.236632	0.268454	3.316124
0.249227	1.354399	1.247161	0.278987	3.378307
0.252729	1.368204	1.256498	0.293196	3.438293
0.256230	1.382178	1.264591	0.311225	3.495782
0.259732	1.396293	1.271383	0.333221	3.550447
0.263234	1.410520	1.276809	0.359325	3.601929
0.266735	1.424826	1.280801	0.389677	3.649837
0.270237	1.439176	1.283283	0.424410	3.693740
0.273738	1.453530	1.284174	0.463646	3.733170
0.277240	1.467845	1.283383	0.507496	3.767614
0.280742	1.482072	1.280813	0.556055	3.796513
0.284243	1.496157	1.276357	0.609397	3.819261
0.287745	1.510040	1.269901	0.667574	3.835201
0.291246	1.523656	1.261317	0.730608	3.843626
0.294748	1.536934	1.250469	0.798493	3.843776
0.298250	1.549798	1.237206	0.871195	3.834841
0.301751	1.562172	1.221363	0.948654	3.815959
0.305253	1.573980	1.202752	1.030801	3.786214
0.308755	1.585152	1.181157	1.117573	3.744627
0.312256	1.595631	1.156325	1.208952	3.690136
0.315758	1.605383	1.127940	1.305007	3.621552
0.319259	1.614403	1.095600	1.405959	3.537480
0.322761	1.622726	1.058767	1.512250	3.436178
0.326263	1.630427	1.016705	1.624605	3.315326
0.329764	1.637620	0.968372	1.744055	3.171650
0.333266	1.644419	0.912283	1.871854	3.000353
0.336767	1.650865	0.846299	2.009133	2.794250
0.340269	1.656747	0.767332	2.156010	2.542550
0.343771	1.661248	0.670974	2.309540	2.229308
0.347272	1.662258	0.551100	2.459390	1.832140
0.350774	1.655181	0.399802	2.579784	1.323491
0.354275	1.631522	0.208521	2.618383	0.680412
0.357777	1.579051	0.028473	2.492592	-0.089922
0.361279	1.486966	0.309121	2.115513	-0.919305
0.364780	1.354429	0.620864	1.449007	-1.681833
0.368282	1.191199	0.940791	0.533865	-2.241339
0.371783	1.007478	1.239533	-0.521430	-2.497606
0.375285	0.810364	1.490699	-1.565493	-2.416017
0.378787	0.611097	1.678796	-2.444917	-2.051814
0.382288	0.426650	1.803489	-3.070541	-1.538917
0.385790	0.271213	1.878177	-3.453993	-1.018772
0.389291	0.149428	1.921218	-3.668751	-0.574168
0.392793	0.058086	1.947693	-3.790132	-0.226269
0.396295	0.009005	1.967067	-3.869272	0.035429
0.399796	0.057911	1.984424	-3.934583	0.229839
0.403298	0.093508	2.002207	-4.000091	0.374444
0.406799	0.119431	2.021458	-4.072028	0.482850
0.410301	0.138312	2.042509	-4.152712	0.565008
0.413803	0.152041	2.065360	-4.242597	0.628038
0.417304	0.161977	2.089865	-4.341299	0.677021
0.420806	0.169107	2.115822	-4.448105	0.715601
0.424307	0.174150	2.143021	-4.562213	0.746414
0.427809	0.177636	2.171266	-4.682842	0.771390
0.431311	0.179959	2.200378	-4.809280	0.791955
0.434812	0.181412	2.230203	-4.940897	0.809173
0.438314	0.182219	2.260608	-5.077145	0.823851
0.441815	0.182546	2.291479	-5.217551	0.836601
0.445317	0.182522	2.322720	-5.361713	0.847893
0.448819	0.182243	2.354251	-5.509284	0.858092
0.452320	0.181786	2.386004	-5.659969	0.867483
0.455822	0.181207	2.417923	-5.813516	0.876290
0.459323	0.180551	2.449960	-5.969707	0.884688
0.462825	0.179853	2.482076	-6.128357	0.892816
0.466327	0.179137	2.514238	-6.289305	0.900787
0.469828	0.178425	2.546419	-6.452414	0.908690
0.473330	0.177731	2.578595	-6.617565	0.916595
0.476831	0.177068	2.610749	-6.784655	0.924560
0.480333	0.176444	2.642863	-6.953593	0.932632
0.483835	0.175864	2.674926	-7.124302	0.940848
0.487336	0.175335	2.706928	-7.296715	0.949237
0.490838	0.174858	2.738859	-7.470771	0.957825
0.494339	0.174437	2.770712	-7.646418	0.966631
0.497841	0.174072	2.802483	-7.823612	0.975670
0.501343	0.173765	2.834168	-8.002311	0.984956
0.504844	0.173514	2.865761	-8.182482	0.994499
0.508346	0.173320	2.897263	-8.364091	1.004306
0.511847	0.173182	2.928670	-8.547113	1.014385
0.515349	0.173099	2.959981	-8.731523	1.024741
0.518851	0.173071	2.991196	-8.917299	1.035376
0.522352	0.173095	3.022314	-9.104422	1.046295
0.525854	0.173171	3.053337	-9.292876	1.057500
0.529356	0.173298	3.084263	-9.482644	1.068992
0.532857	0.173474	3.115094	-9.673715	1.080773
0.536359	0.173697	3.145830	-9.866076	1.092843
0.539860	0.173967	3.176473	-10.059716	1.105203
0.543362	0.174282	3.207024	-10.254626	1.117853
0.546864	0.174641	3.237483	-10.450797	1.130794
0.550365	0.175042	3.267853	-10.648222	1.144024
0.553867	0.175485	3.298134	-10.846894	1.157543
0.557368	0.175967	3.328329	-11.046807	1.171352
0.560870	0.176488	3.358438	-11.247956	1.185450
0.564372	0.177047	3.388463	-11.450335	1.199837
0.567873	0.177643	3.418406	-11.653941	1.214511
0.571375	0.178274	3.448268	-11.858770	1.229473
0.574876	0.178940	3.478051	-12.064817	1.244722
0.578378	0.179639	3.507756	-12.272081	1.260257
0.581880	0.180370	3.537385	-12.480558	1.276078
0.585381	0.181134	3.566939	-12.690245	1.292185
0.588883	0.181928	3.596420	-12.901141	1.308578
0.592384	0.182752	3.625830	-13.113243	1.325255
0.595886	0.183605	3.655169	-13.326550	1.342216
0.599388	0.184487	3.684440	-13.541060	1.359462
0.602889	0.185396	3.713643	-13.756771	1.376991
0.606391	0.186333	3.742780	-13.973683	1.394805
0.609892	0.187295	3.771853	-14.191794	1.412902
0.613394	0.188284	3.800862	-14.411103	1.431282
0.616896	0.189297	3.829810	-14.631609	1.449945
0.620397	0.190335	3.858696	-14.853311	1.468892
0.623899	0.191397	3.887524	-15.076209	1.488122
0.627400	0.192482	3.916293	-15.300302	1.507635
0.630902	0.193591	3.945005	-15.525589	1.527431
0.634404	0.194721	3.973662	-15.752070	1.547511
0.637905	0.195874	4.002263	-15.979744	1.567875
0.641407	0.197047	4.030811	-16.208612	1.588522
0.644908	0.198242	4.059307	-16.438671	1.609453
0.648410	0.199458	4.087751	-16.669923	1.630668
0.651912	0.200694	4.116144	-16.902367	1.652167
0.655413	0.201949	4.144489	-17.136003	1.673951
0.658915	0.203224	4.172784	-17.370829	1.696021
0.662416	0.204518	4.201033	-17.606847	1.718376
0.665918	0.205831	4.229234	-17.844056	1.741016
0.669420	0.207162	4.257390	-18.082456	1.763943
0.672921	0.208512	4.285502	-18.322047	1.787157
0.676423	0.209879	4.313569	-18.562827	1.810658
0.679924	0.211264	4.341593	-18.804799	1.834447
0.683426	0.212666	4.369575	-19.047960	1.858524
0.686928	0.214086	4.397516	-19.292312	1.882890
0.690429	0.215522	4.425416	-19.537853	1.907545
0.693931	0.216974	4.453275	-19.784585	1.932490
0.697432	0.218443	4.481096	-20.032506	1.957726
0.700934	0.219928	4.508878	-20.281617	1.983254
0.704436	0.221428	4.536623	-20.531918	2.009073
0.707937	0.222945	4.564330	-20.783408	2.035185
0.711439	0.224476	4.592001	-21.036087	2.061591
0.714940	0.226023	4.619637	-21.289956	2.088290
0.718442	0.227585	4.647237	-21.545014	2.115284
0.721944	0.229162	4.674802	-21.801262	2.142575
0.725445	0.230754	4.702334	-22.058698	2.170161
0.728947	0.232360	4.729832	-22.317324	2.198045
0.732448	0.233980	4.757298	-22.577138	2.226226
0.735950	0.235615	4.784732	-22.838141	2.254706
0.739452	0.237263	4.812133	-23.100333	2.283486
0.742953	0.238926	4.839504	-23.363714	2.312567
0.746455	0.240602	4.866844	-23.628283	2.341949
0.749957	0.242292	4.894154	-23.894040	2.371633
0.753458	0.243996	4.921435	-24.160986	2.401620
0.756960	0.245713	4.948686	-24.429119	2.431911
0.760461	0.247443	4.975909	-24.698441	2.462507
0.763963	0.249186	5.003103	-24.968951	2.493408
0.767465	0.250942	5.030270	-25.240648	2.524617
0.770966	0.252712	5.057410	-25.513533	2.556133
0.774468	0.254494	5.084523	-25.787605	2.587957
0.777969	0.256288	5.111609	-26.062865	2.620092
0.781471	0.258096	5.138670	-26.339312	2.652536
0.784973	0.259915	5.165704	-26.616945	2.685292
0.788474	0.261748	5.192714	-26.895766	2.718361
0.791976	0.263592	5.219699	-27.175773	2.751743
0.795477	0.265449	5.246659	-27.456967	2.785439
0.798979	0.267318	5.273595	-27.739347	2.819451
0.802481	0.269199	5.300508	-28.022913	2.853779
0.805982	0.271092	5.327397	-28.307664	2.888425
0.809484	0.272996	5.354263	-28.593602	2.923389
0.812985	0.274913	5.381106	-28.880725	2.958672
0.816487	0.276841	5.407927	-29.169033	2.994276
0.819989	0.278781	5.434726	-29.458526	3.030202
0.823490	0.280733	5.461503	-29.749204	3.066450
0.826992	0.282696	5.488259	-30.041067	3.103021
0.830493	0.284671	5.514993	-30.334114	3.139918
0.833995	0.286657	5.541707	-30.628345	3.177140
0.837497	0.288655	5.568400	-30.923759	3.214688
0.840998	0.290663	5.595073	-31.220358	3.252565
0.844500	0.292683	5.621726	-31.518140	3.290771
0.848001	0.294714	5.648359	-31.817105	3.329306
0.851503	0.296757	5.674973	-32.117252	3.368173
0.855005	0.298810	5.701567	-32.418582	3.407371
0.858506	0.300874	5.728143	-32.721095	3.446903
0.862008	0.302950	5.754700	-33.024790	3.486770
0.865509	0.305036	5.781238	-33.329666	3.526971
0.869011	0.307133	5.807758	-33.635723	3.567509
0.872513	0.309241	5.834260	-33.942962	3.608385
0.876014	0.311360	5.860745	-34.251382	3.649599
0.879516	0.313489	5.887211	-34.560982	3.691154
0.883017	0.315629	5.913661	-34.871762	3.733049
0.886519	0.317780	5.940093	-35.183722	3.775286
0.890021	0.319941	5.966509	-35.496862	3.817866
0.893522	0.322113	5.992907	-35.811181	3.860791
0.897024	0.324296	6.019290	-36.126679	3.904060
0.900525	0.326489	6.045656	-36.443356	3.947677
0.904027	0.328692	6.072005	-36.761210	3.991641
0.907529	0.330906	6.098339	-37.080243	4.035953
0.911030	0.333130	6.124657	-37.400453	4.080615
0.914532	0.335365	6.150960	-37.721841	4.125629
0.918033	0.337609	6.177247	-38.044405	4.170994
0.921535	0.339865	6.203519	-38.368146	4.216713
0.925037	0.342130	6.229777	-38.693063	4.262786
0.928538	0.344406	6.256019	-39.019155	4.309215
0.932040	0.346691	6.282246	-39.346424	4.356000
0.935541	0.348987	6.308459	-39.674867	4.403143
0.939043	0.351293	6.334658	-40.004485	4.450644
0.942545	0.353609	6.360842	-40.335277	4.498506
0.946046	0.355936	6.387013	-40.667243	4.546729
0.949548	0.358272	6.413169	-41.000382	4.595315
0.953049	0.360618	6.439312	-41.334695	4.644264
0.956551	0.362974	6.465441	-41.670180	4.693577
0.960053	0.365340	6.491557	-42.006837	4.743256
0.963554	0.367717	6.517659	-42.344667	4.793302
0.967056	0.370103	6.543748	-42.683668	4.843716
0.970558	0.372498	6.569825	-43.023840	4.894500
0.974059	0.374904	6.595888	-43.365182	4.945653
0.977561	0.377320	6.621938	-43.707695	4.997178
0.981062	0.379745	6.647976	-44.051378	5.049076
0.984564	0.382181	6.674001	-44.396230	5.101348
0.988066	0.384626	6.700014	-44.742251	5.153994
0.991567	0.387080	6.726015	-45.089441	5.207017
0.995069	0.389545	6.752003	-45.437798	5.260417
0.998570	0.392019	6.777979	-45.787324	5.314195
1.002072	0.394503	6.803944	-46.138016	5.368353
1.005574	0.396997	6.829896	-46.489875	5.422891
1.009075	0.399500	6.855837	-46.842901	5.477812
1.012577	0.402013	6.881766	-47.197093	5.533115
1.016078	0.404535	6.907684	-47.552450	5.588803
1.019580	0.407067	6.933590	-47.908971	5.644876
1.023082	0.409609	6.959485	-48.266658	5.701335
1.026583	0.412160	6.985369	-48.625508	5.758182
1.030085	0.414721	7.011242	-48.985522	5.815418
1.033586	0.417291	7.037104	-49.346699	5.873044
1.037088	0.419871	7.062955	-49.709039	5.931061
1.040590	0.422460	7.088795	-50.072541	5.989470
1.044091	0.425059	7.114624	-50.437204	6.048272
1.047593	0.427667	7.140443	-50.803029	6.107469
1.051094	0.430285	7.166251	-51.170014	6.167062
1.054596	0.432912	7.192049	-51.538160	6.227052
1.058098	0.435549	7.217837	-51.907465	6.287440
1.061599	0.438195	7.243614	-52.277930	6.348227
1.065101	0.440850	7.269381	-52.649553	6.409414
1.068602	0.443515	7.295138	-53.022334	6.471003
1.072104	0.446189	7.320885	-53.396273	6.532995
1.075606	0.448872	7.346622	-53.771370	6.595390
1.079107	0.451565	7.372349	-54.147623	6.658191
1.082609	0.454267	7.398067	-54.525032	6.721397
1.086110	0.456979	7.423774	-54.903597	6.785011
1.089612	0.459699	7.449473	-55.283318	6.849034
1.093114	0.462429	7.475161	-55.664193	6.913466
1.096615	0.465168	7.500840	-56.046222	6.978308
1.100117	0.467917	7.526510	-56.429404	7.043563
1.103618	0.470675	7.552170	-56.813740	7.109231
1.107120	0.473442	7.577821	-57.199228	7.175313
1.110622	0.476218	7.603463	-57.585869	7.241810
1.114123	0.479003	7.629096	-57.973661	7.308724
1.117625	0.481798	7.654720	-58.362604	7.376055
1.121126	0.484602	7.680334	-58.752697	7.443806
1.124628	0.487415	7.705940	-59.143940	7.511976
1.128130	0.490237	7.731537	-59.536333	7.580567
1.131631	0.493068	7.757125	-59.929874	7.649581
1.135133	0.495908	7.782704	-60.324564	7.719018
1.138634	0.498758	7.808275	-60.720401	7.788880
1.142136	0.501617	7.833837	-61.117386	7.859168
1.145638	0.504485	7.859391	-61.515517	7.929882
1.149139	0.507361	7.884936	-61.914794	8.001025
1.152641	0.510247	7.910472	-62.315217	8.072597
1.156142	0.513143	7.936000	-62.716784	8.144599
1.159644	0.516047	7.961520	-63.119496	8.217032
1.163146	0.518960	7.987031	-63.523352	8.289898
1.166647	0.521882	8.012535	-63.928351	8.363198
1.170149	0.524813	8.038030	-64.334493	8.436933
1.173651	0.527754	8.063517	-64.741777	8.511104
1.177152	0.530703	8.088995	-65.150202	8.585712
1.180654	0.533662	8.114466	-65.559768	8.660758
1.184155	0.536629	8.139929	-65.970475	8.736244
1.187657	0.539605	8.165384	-66.382321	8.812171
1.191159	0.542591	8.190831	-66.795307	8.888539
1.194660	0.545585	8.216270	-67.209431	8.965351
1.198162	0.548589	8.241701	-67.624694	9.042606
1.201663	0.551601	8.267125	-68.041093	9.120307
1.205165	0.554622	8.292541	-68.458630	9.198454
1.208667	0.557652	8.317949	-68.877303	9.277048
1.212168	0.560692	8.343350	-69.297111	9.356091
1.215670	0.563740	8.368743	-69.718055	9.435584
1.219171	0.566797	8.394128	-70.140133	9.515527
1.222673	0.569863	8.419506	-70.563345	9.595923
1.226175	0.572937	8.444877	-70.987690	9.676772
1.229676	0.576021	8.470240	-71.413168	9.758075
1.233178	0.579114	8.495596	-71.839778	9.839833
1.236679	0.582215	8.520944	-72.267519	9.922048
1.240181	0.585326	8.546286	-72.696392	10.004721
1.243683	0.588445	8.571620	-73.126394	10.087852
1.247184	0.591573	8.596946	-73.557526	10.171444
1.250686	0.594710	8.622266	-73.989787	10.255496
1.254187	0.597856	8.647578	-74.423176	10.340011
1.257689	0.601011	8.672883	-74.857694	10.424989
1.261191	0.604174	8.698182	-75.293338	10.510432
1.264692	0.607346	8.723473	-75.730109	10.596340
1.268194	0.610528	8.748757	-76.168005	10.682714
1.271695	0.613718	8.774034	-76.607027	10.769557
1.275197	0.616916	8.799304	-77.047174	10.856869
1.278699	0.620124	8.824568	-77.488444	10.944650
1.282200	0.623340	8.849824	-77.930838	11.032903
1.285702	0.626565	8.875074	-78.374354	11.121628
1.289203	0.629799	8.900317	-78.818993	11.210826
1.292705	0.633042	8.925553	-79.264753	11.300500
1.296207	0.636293	8.950782	-79.711634	11.390648
1.299708	0.639554	8.976005	-80.159635	11.481274
1.303210	0.642823	9.001221	-80.608755	11.572377
1.306711	0.646100	9.026430	-81.058995	11.663959
1.310213	0.649387	9.051633	-81.510352	11.756022
1.313715	0.652682	9.076829	-81.962827	11.848566
1.317216	0.655986	9.102018	-82.416419	11.941592
1.320718	0.659299	9.127201	-82.871127	12.035101
1.324219	0.662620	9.152378	-83.326951	12.129095
1.327721	0.665950	9.177548	-83.783890	12.223575
1.331223	0.669289	9.202711	-84.241943	12.318541
1.334724	0.672636	9.227868	-84.701109	12.413996
1.338226	0.675992	9.253019	-85.161389	12.509939
1.341727	0.679357	9.278163	-85.622781	12.606372
1.345229	0.682731	9.303301	-86.085284	12.703297
1.348731	0.686113	9.328432	-86.548899	12.800714
1.352232	0.689504	9.353558	-87.013623	12.898624
1.355734	0.692903	9.378676	-87.479457	12.997029
1.359235	0.696311	9.403789	-87.946401	13.095930
1.362737	0.699728	9.428896	-88.414452	13.195327
1.366239	0.703154	9.453996	-88.883611	13.295221
1.369740	0.706588	9.479090	-89.353877	13.395615
1.373242	0.710030	9.504178	-89.825249	13.496509
1.376743	0.713482	9.529259	-90.297727	13.597904
1.380245	0.716942	9.554335	-90.771309	13.699801
1.383747	0.720410	9.579404	-91.245996	13.802201
1.387248	0.723887	9.604468	-91.721786	13.905106
1.390750	0.727373	9.629525	-92.198679	14.008516
1.394252	0.730868	9.654576	-92.676674	14.112432
1.397753	0.734370	9.679621	-93.155771	14.216856
1.401255	0.737882	9.704661	-93.635968	14.321789
1.404756	0.741402	9.729694	-94.117265	14.427232
1.408258	0.744931	9.754721	-94.599662	14.533186
1.411760	0.748468	9.779742	-95.083157	14.639651
1.415261	0.752014	9.804758	-95.567750	14.746630
1.418763	0.755568	9.829767	-96.053440	14.854122
1.422264	0.759131	9.854771	-96.540227	14.962130
1.425766	0.762703	9.879768	-97.028110	15.070654
1.429268	0.766283	9.904760	-97.517088	15.179696
1.432769	0.769871	9.929746	-98.007160	15.289255
1.436271	0.773469	9.954726	-98.498326	15.399335
1.439772	0.777074	9.979701	-98.990585	15.509935
1.443274	0.780688	10.004669	-99.483936	15.621056
1.446776	0.784311	10.029632	-99.978378	15.732701
1.450277	0.787942	10.054589	-100.473912	15.844869
1.453779	0.791582	10.079541	-100.970535	15.957562
1.457280	0.795230	10.104486	-101.468248	16.070781
1.460782	0.798887	10.129426	-101.967050	16.184527
1.464284	0.802552	10.154360	-102.466940	16.298801
1.467785	0.806225	10.179289	-102.967917	16.413604
1.471287	0.809908	10.204211	-103.469980	16.528937
1.474788	0.813598	10.229129	-103.973129	16.644802
1.478290	0.817297	10.254040	-104.477364	16.761199
1.481792	0.821005	10.278946	-104.982682	16.878129
1.485293	0.824721	10.303846	-105.489084	16.995594
1.488795	0.828445	10.328741	-105.996569	17.113594
1.492296	0.832178	10.353630	-106.505136	17.232130
1.495798	0.835920	10.378514	-107.014785	17.351205
1.499300	0.839669	10.403392	-107.525514	17.470818
1.502801	0.843428	10.428264	-108.037323	17.590970
1.506303	0.847194	10.453131	-108.550212	17.711664
1.509804	0.850969	10.477993	-109.064178	17.832899
1.513306	0.854753	10.502848	-109.579223	17.954677
1.516808	0.858545	10.527699	-110.095344	18.076999
1.520309	0.862345	10.552544	-110.612542	18.199866
1.523811	0.866154	10.577383	-111.130815	18.323279
1.527312	0.869971	10.602217	-111.650162	18.447239
1.530814	0.873796	10.627046	-112.170584	18.571747
1.534316	0.877630	10.651869	-112.692079	18.696805
1.537817	0.881473	10.676687	-113.214646	18.822412
1.541319	0.885323	10.701499	-113.738285	18.948571
1.544820	0.889182	10.726306	-114.262995	19.075282
1.548322	0.893050	10.751108	-114.788775	19.202546
1.551824	0.896925	10.775904	-115.315625	19.330364
1.555325	0.900810	10.800694	-115.843543	19.458738
1.558827	0.904702	10.825480	-116.372529	19.587668
1.562328	0.908603	10.850260	-116.902583	19.717156
1.565830	0.912512	10.875035	-117.433702	19.847202
1.569332	0.916430	10.899804	-117.965887	19.977808
1.572833	0.920356	10.924568	-118.499138	20.108974
1.576335	0.924290	10.949327	-119.033452	20.240702
1.579836	0.928232	10.974081	-119.568829	20.372992
1.583338	0.932183	10.998829	-120.105269	20.505846
1.586840	0.936142	11.023572	-120.642771	20.639264
1.590341	0.940110	11.048309	-121.181334	20.773248
1.593843	0.944086	11.073042	-121.720957	20.907799
1.597344	0.948070	11.097769	-122.261639	21.042917
1.600846	0.952062	11.122491	-122.803380	21.178604
1.604348	0.956063	11.147207	-123.346179	21.314861
1.607849	0.960072	11.171919	-123.890035	21.451688
1.611351	0.964089	11.196625	-124.434947	21.589088
1.614853	0.968115	11.221326	-124.980915	21.727060
1.618354	0.972148	11.246022	-125.527938	21.865605
1.621856	0.976191	11.270713	-126.076014	22.004726
1.625357	0.980241	11.295398	-126.625144	22.144422
1.628859	0.984300	11.320078	-127.175326	22.284695
1.632361	0.988366	11.344753	-127.726559	22.425546
1.635862	0.992442	11.369423	-128.278844	22.566976
1.639364	0.996525	11.394088	-128.832178	22.708985
1.642865	1.000617	11.418748	-129.386562	22.851575
1.646367	1.004716	11.443402	-129.941994	22.994747
1.649869	1.008824	11.468051	-130.498474	23.138502
1.653370	1.012941	11.492695	-131.056000	23.282841
1.656872	1.017065	11.517335	-131.614573	23.427764
1.660373	1.021198	11.541968	-132.174191	23.573274
1.663875	1.025339	11.566597	-132.734853	23.719370
1.667377	1.029488	11.591221	-133.296559	23.866053
1.670878	1.033646	11.615840	-133.859307	24.013326
1.674380	1.037811	11.640453	-134.423098	24.161188
1.677881	1.041985	11.665062	-134.987930	24.309641
1.681383	1.046167	11.689665	-135.553802	24.458686
1.684885	1.050357	11.714263	-136.120713	24.608324
1.688386	1.054556	11.738856	-136.688664	24.758555
1.691888	1.058762	11.763445	-137.257652	24.909381
1.695389	1.062977	11.788028	-137.827678	25.060803
1.698891	1.067200	11.812606	-138.398740	25.212821
1.702393	1.071431	11.837179	-138.970837	25.365437
1.705894	1.075670	11.861747	-139.543970	25.518652
1.709396	1.079917	11.886310	-140.118136	25.672466
1.712897	1.084173	11.910868	-140.693335	25.826880
1.716399	1.088437	11.935420	-141.269566	25.981897
1.719901	1.092708	11.959968	-141.846829	26.137515
1.723402	1.096988	11.984511	-142.425122	26.293738
1.726904	1.101276	12.009049	-143.004445	26.450564
1.730405	1.105573	12.033582	-143.584797	26.607997
1.733907	1.109877	12.058109	-144.166177	26.766035
1.737409	1.114189	12.082632	-144.748584	26.924681
1.740910	1.118510	12.107150	-145.332018	27.083935
1.744412	1.122839	12.131663	-145.916478	27.243799
1.747913	1.127175	12.156171	-146.501962	27.404272
1.751415	1.131520	12.180674	-147.088470	27.565357
1.754917	1.135873	12.205171	-147.676001	27.727054
1.758418	1.140234	12.229664	-148.264555	27.889365
1.761920	1.144603	12.254152	-148.854130	28.052289
1.765421	1.148981	12.278635	-149.444726	28.215828
1.768923	1.153366	12.303113	-150.036341	28.379983
1.772425	1.157759	12.327586	-150.628976	28.544756
1.775926	1.162161	12.352054	-151.222628	28.710146
1.779428	1.166570	12.376517	-151.817298	28.876155
1.782929	1.170988	12.400976	-152.412984	29.042784
1.786431	1.175413	12.425429	-153.009686	29.210033
1.789933	1.179847	12.449877	-153.607402	29.377904
1.793434	1.184289	12.474321	-154.206132	29.546398
1.796936	1.188739	12.498759	-154.805876	29.715515
1.800437	1.193196	12.523192	-155.406631	29.885257
1.803939	1.197662	12.547621	-156.008398	30.055624
1.807441	1.202136	12.572045	-156.611175	30.226618
1.810942	1.206618	12.596463	-157.214962	30.398239
1.814444	1.211108	12.620877	-157.819757	30.570488
1.817945	1.215606	12.645286	-158.425561	30.743367
1.821447	1.220112	12.669690	-159.032372	30.916875
1.824949	1.224626	12.694089	-159.640188	31.091015
1.828450	1.229148	12.718483	-160.249010	31.265786
1.831952	1.233678	12.742872	-160.858837	31.441191
1.835454	1.238215	12.767257	-161.469667	31.617229
1.838955	1.242761	12.791636	-162.081500	31.793902
1.842457	1.247315	12.816011	-162.694335	31.971211
1.845958	1.251877	12.840380	-163.308171	32.149156
1.849460	1.256447	12.864745	-163.923007	32.327739
1.852962	1.261025	12.889105	-164.538842	32.506960
1.856463	1.265611	12.913460	-165.155676	32.686821
1.859965	1.270204	12.937810	-165.773507	32.867322
1.863466	1.274806	12.962155	-166.392335	33.048464
1.866968	1.279416	12.986495	-167.012159	33.230248
1.870470	1.284033	13.010831	-167.632977	33.412675
1.873971	1.288659	13.035161	-168.254790	33.595747
1.877473	1.293292	13.059487	-168.877596	33.779463
1.880974	1.297933	13.083808	-169.501394	33.963824
1.884476	1.302583	13.108124	-170.126184	34.148833
1.887978	1.307240	13.132435	-170.751964	34.334489
1.891479	1.311905	13.156741	-171.378734	34.520793
1.894981	1.316578	13.181042	-172.006493	34.707747
1.898482	1.321259	13.205339	-172.635240	34.895351
1.901984	1.325948	13.229630	-173.264974	35.083606
1.905486	1.330645	13.253917	-173.895693	35.272513
1.908987	1.335350	13.278199	-174.527399	35.462073
1.912489	1.340062	13.302476	-175.160088	35.652287
1.915990	1.344783	13.326748	-175.793761	35.843156
1.919492	1.349511	13.351015	-176.428417	36.034680
1.922994	1.354247	13.375277	-177.064055	36.226861
1.926495	1.358991	13.399535	-177.700673	36.419699
1.929997	1.363743	13.423787	-178.338271	36.613196
1.933498	1.368503	13.448035	-178.976849	36.807352
1.937000	1.373271	13.472278	-179.616404	37.002168
