Mie Scattering and Absorption for 30Au_70Ag 30nm Sphere
Wavelength(nm)  Scattering_Cross(µm²)  Absorption_Cross(µm²)
270.00 0.000029 0.000736
280.00 0.000025 0.000690
290.00 0.000021 0.000648
300.00 0.000018 0.000613
310.00 0.000016 0.000585
320.00 0.000013 0.000565
330.00 0.000012 0.000554
340.00 0.000010 0.000551
350.00 0.000009 0.000560
360.00 0.000008 0.000582
370.00 0.000008 0.000632
380.00 0.000009 0.000741
390.00 0.000014 0.000934
400.00 0.000021 0.001165
410.00 0.000029 0.001235
420.00 0.000030 0.001018
430.00 0.000026 0.000706
440.00 0.000020 0.000467
450.00 0.000016 0.000314
460.00 0.000013 0.000220
470.00 0.000010 0.000160
480.00 0.000008 0.000120
490.00 0.000007 0.000093
500.00 0.000006 0.000074
510.00 0.000005 0.000061
520.00 0.000005 0.000050
530.00 0.000004 0.000043
540.00 0.000004 0.000036
550.00 0.000003 0.000032
560.00 0.000003 0.000028
570.00 0.000003 0.000025
580.00 0.000002 0.000022
590.00 0.000002 0.000020
600.00 0.000002 0.000018
610.00 0.000002 0.000016
620.00 0.000002 0.000015
630.00 0.000001 0.000014
640.00 0.000001 0.000013
650.00 0.000001 0.000012
660.00 0.000001 0.000011
670.00 0.000001 0.000010
680.00 0.000001 0.000010
690.00 0.000001 0.000009
700.00 0.000001 0.000009
710.00 0.000001 0.000008
720.00 0.000001 0.000008
730.00 0.000001 0.000007
740.00 0.000001 0.000007
750.00 0.000001 0.000007
760.00 0.000001 0.000006
770.00 0.000001 0.000006
780.00 0.000001 0.000006
790.00 0.000000 0.000006
800.00 0.000000 0.000005
810.00 0.000000 0.000005
820.00 0.000000 0.000005
830.00 0.000000 0.000005
840.00 0.000000 0.000005
850.00 0.000000 0.000004
860.00 0.000000 0.000004
870.00 0.000000 0.000004
880.00 0.000000 0.000004
890.00 0.000000 0.000004
900.00 0.000000 0.000004
910.00 0.000000 0.000004
920.00 0.000000 0.000004
930.00 0.000000 0.000003
940.00 0.000000 0.000003
950.00 0.000000 0.000003
960.00 0.000000 0.000003
970.00 0.000000 0.000003
980.00 0.000000 0.000003
990.00 0.000000 0.000003
1000.00 0.000000 0.000003
1010.00 0.000000 0.000003
1020.00 0.000000 0.000003
1030.00 0.000000 0.000003
1040.00 0.000000 0.000003
1050.00 0.000000 0.000003
1060.00 0.000000 0.000003
1070.00 0.000000 0.000002
1080.00 0.000000 0.000002
1090.00 0.000000 0.000002
1100.00 0.000000 0.000002
1110.00 0.000000 0.000002
1120.00 0.000000 0.000002
1130.00 0.000000 0.000002
1140.00 0.000000 0.000002
1150.00 0.000000 0.000002
1160.00 0.000000 0.000002
1170.00 0.000000 0.000002
1180.00 0.000000 0.000002
1190.00 0.000000 0.000002
1200.00 0.000000 0.000002
